2Theta,Intensity
20.0084,7218.0
20.0254,7211.7054
20.0424,7205.4109
20.0594,7199.1163
20.0764,7192.8218
20.0934,7186.5272
20.1104,7180.2327
20.1274,7173.9381
20.1444,7167.6435
20.1614,7161.349
20.1784,7155.0544
20.1954,7148.7599
20.2124,7142.4653
20.2294,7136.1708
20.2464,7129.8762
20.2634,7123.5816
20.2804,7117.1283
20.2974,7110.675
20.3144,7104.2217
20.3314,7097.7685
20.3484,7091.3152
20.3654,7084.8619
20.3824,7078.4086
20.3994,7071.9553
20.4164,7065.502
20.4334,7059.0487
20.4504,7052.5954
20.4674,7046.1421
20.4844,7039.6888
20.5014,7033.2355
20.5184,7026.7822
20.5354,7020.3289
20.5524,7013.8756
20.5694,7007.4223
20.5864,7000.969
20.6034,6994.5157
20.6204,6988.0624
20.6374,6981.6091
20.6544,6975.1558
20.6714,6968.7025
20.6884,6962.2492
20.7054,6955.7959
20.7224,6949.3426
20.7394,6942.8893
20.7564,6936.436
20.7734,6929.9827
20.7904,6923.3707
20.8074,6916.7587
20.8244,6910.1466
20.8414,6903.5346
20.8584,6896.9226
20.8754,6890.3105
20.8924,6883.6985
20.9094,6877.0865
20.9264,6870.4744
20.9434,6863.8624
20.9604,6857.2504
20.9774,6850.6383
20.9944,6844.0263
21.0114,6837.4142
21.0284,6830.8022
21.0454,6827.1982
21.0624,6823.5942
21.0794,6819.9902
21.0964,6816.3862
21.1134,6812.7821
21.1304,6809.1781
21.1474,6805.5741
21.1644,6801.9701
21.1814,6798.3661
21.1984,6794.7621
21.2154,6791.1581
21.2324,6787.5541
21.2494,6783.95
21.2664,6780.346
21.2834,6776.742
21.3004,6772.9995
21.3174,6769.257
21.3344,6765.5144
21.3514,6761.7719
21.3684,6758.0294
21.3854,6754.2868
21.4024,6750.5443
21.4194,6746.8018
21.4364,6743.0593
21.4534,6739.3167
21.4704,6735.5742
21.4874,6731.8317
21.5044,6728.0891
21.5214,6724.3466
21.5384,6720.6041
21.5554,6716.8616
21.5724,6713.119
21.5894,6709.3765
21.6064,6705.634
21.6234,6701.8914
21.6404,6698.1489
21.6574,6694.4064
21.6744,6690.6638
21.6914,6686.9213
21.7084,6683.1788
21.7254,6679.4363
21.7424,6675.6937
21.7594,6671.9512
21.7764,6668.2087
21.7934,6664.4661
21.8104,6660.5851
21.8274,6656.7041
21.8444,6652.823
21.8614,6648.942
21.8784,6645.0609
21.8954,6641.1799
21.9124,6637.2988
21.9294,6633.4178
21.9464,6629.5367
21.9634,6625.6557
21.9804,6621.7747
21.9974,6617.8936
22.0144,6614.0126
22.0314,6610.1315
22.0484,6606.2505
22.0654,6602.198
22.0824,6598.1455
22.0994,6594.0929
22.1164,6590.0404
22.1334,6585.9879
22.1504,6581.9354
22.1674,6577.8829
22.1844,6573.8304
22.2014,6569.7779
22.2184,6565.7254
22.2354,6561.6729
22.2524,6557.6203
22.2694,6553.5678
22.2864,6549.5153
22.3034,6545.4628
22.3204,6541.472
22.3374,6537.4811
22.3544,6533.4902
22.3714,6529.4994
22.3884,6525.5085
22.4054,6521.5176
22.4224,6517.5268
22.4394,6513.5359
22.4564,6509.545
22.4734,6505.5542
22.4904,6501.5633
22.5074,6497.5724
22.5244,6493.5816
22.5414,6489.5907
22.5584,6485.5998
22.5754,6481.4922
22.5924,6477.3847
22.6094,6473.2771
22.6264,6469.1695
22.6434,6465.0619
22.6604,6460.9544
22.6774,6456.8468
22.6944,6452.7392
22.7114,6448.6316
22.7284,6444.5241
22.7454,6440.4165
22.7624,6436.3089
22.7794,6432.2013
22.7964,6428.0937
22.8134,6423.9862
22.8304,6419.8786
22.8474,6415.771
22.8644,6411.6634
22.8814,6407.5559
22.8984,6403.4483
22.9154,6399.3407
22.9324,6395.2331
22.9494,6391.1256
22.9664,6387.018
22.9834,6382.9104
23.0004,6378.8028
23.0174,6374.6953
23.0344,6370.5877
23.0514,6366.4801
23.0684,6362.3725
23.0854,6358.1482
23.1024,6353.924
23.1194,6349.6997
23.1364,6345.4754
23.1534,6341.2511
23.1704,6337.0268
23.1874,6332.8025
23.2044,6328.5782
23.2214,6324.3539
23.2384,6320.1297
23.2554,6315.9054
23.2724,6311.6811
23.2894,6307.4568
23.3064,6303.2325
23.3234,6299.0082
23.3404,6297.9298
23.3574,6296.8514
23.3744,6295.773
23.3914,6294.6946
23.4084,6293.6162
23.4254,6292.5379
23.4424,6291.4595
23.4594,6290.3811
23.4764,6289.3027
23.4934,6288.2243
23.5104,6287.1459
23.5274,6286.0675
23.5444,6284.9891
23.5614,6283.9107
23.5784,6282.8323
23.5954,6281.6054
23.6124,6280.3785
23.6294,6279.1516
23.6464,6277.9247
23.6634,6276.6978
23.6804,6275.4709
23.6974,6274.244
23.7144,6273.0171
23.7314,6271.7902
23.7484,6270.5633
23.7654,6269.3365
23.7824,6268.1096
23.7994,6266.8827
23.8164,6265.6558
23.8334,6264.4289
23.8504,6263.202
23.8674,6261.9751
23.8844,6260.7482
23.9014,6259.5213
23.9184,6258.2944
23.9354,6257.0675
23.9524,6255.8406
23.9694,6254.6137
23.9864,6253.3868
24.0034,6252.1599
24.0204,6250.9331
24.0374,6249.7062
24.0544,6248.4793
24.0714,6247.2524
24.0884,6246.0255
24.1054,6244.6501
24.1224,6243.2747
24.1394,6241.8993
24.1564,6240.5239
24.1734,6239.1485
24.1904,6237.7731
24.2074,6236.3977
24.2244,6235.0223
24.2414,6233.647
24.2584,6232.2716
24.2754,6230.8962
24.2924,6229.5208
24.3094,6228.1454
24.3264,6226.77
24.3434,6225.3946
24.3604,6223.8717
24.3774,6222.3487
24.3944,6220.8258
24.4114,6219.3028
24.4284,6217.7799
24.4454,6216.2569
24.4624,6214.734
24.4794,6213.211
24.4964,6211.6881
24.5134,6210.1651
24.5304,6208.6422
24.5474,6207.1193
24.5644,6205.5963
24.5814,6204.0734
24.5984,6202.5504
24.6154,6200.8373
24.6324,6199.1242
24.6494,6197.4112
24.6664,6195.6981
24.6834,6193.985
24.7004,6192.2719
24.7174,6190.5588
24.7344,6188.8457
24.7514,6187.1327
24.7684,6185.4196
24.7854,6183.7065
24.8024,6181.9934
24.8194,6180.2803
24.8364,6178.5672
24.8534,6176.8542
24.8704,6174.9707
24.8874,6173.0873
24.9044,6171.2039
24.9214,6169.3205
24.9384,6167.4371
24.9554,6165.5537
24.9724,6163.6703
24.9894,6161.7868
25.0064,6159.9034
25.0234,6158.02
25.0404,6156.1366
25.0574,6154.2532
25.0744,6152.3698
25.0914,6150.4863
25.1084,6148.6029
25.1254,6148.9811
25.1424,6149.3592
25.1594,6149.7373
25.1764,6150.1154
25.1934,6150.4936
25.2104,6150.8717
25.2274,6151.2498
25.2444,6151.6279
25.2614,6152.0061
25.2784,6152.3842
25.2954,6152.7623
25.3124,6153.1404
25.3294,6153.5186
25.3464,6153.8967
25.3634,6154.2748
25.3804,6154.5015
25.3974,6154.7283
25.4144,6154.955
25.4314,6155.1817
25.4484,6155.4084
25.4654,6155.6352
25.4824,6155.8619
25.4994,6156.0886
25.5164,6156.3154
25.5334,6156.5421
25.5504,6156.7688
25.5674,6156.9955
25.5844,6157.2223
25.6014,6157.449
25.6184,6157.6757
25.6354,6157.7389
25.6524,6157.8022
25.6694,6157.8654
25.6864,6157.9286
25.7034,6157.9918
25.7204,6158.0551
25.7374,6158.1183
25.7544,6158.1815
25.7714,6158.2447
25.7884,6158.308
25.8054,6158.3712
25.8224,6158.4344
25.8394,6158.4976
25.8564,6158.5609
25.8734,6158.6241
25.8904,6158.5102
25.9074,6158.3963
25.9244,6158.2824
25.9414,6158.1685
25.9584,6158.0546
25.9754,6157.9407
25.9924,6157.8268
26.0094,6157.7129
26.0264,6157.599
26.0434,6157.4851
26.0604,6157.3712
26.0774,6157.2573
26.0944,6157.1434
26.1114,6157.0295
26.1284,6156.9156
26.1454,6156.6199
26.1624,6156.3242
26.1794,6156.0284
26.1964,6155.7327
26.2134,6155.437
26.2304,6155.1412
26.2474,6154.8455
26.2644,6154.5498
26.2814,6154.254
26.2984,6153.9583
26.3154,6153.6626
26.3324,6153.3668
26.3494,6153.0711
26.3664,6152.7754
26.3834,6152.4796
26.4004,6152.0047
26.4174,6151.5298
26.4344,6151.0549
26.4514,6150.58
26.4684,6150.1051
26.4854,6149.6302
26.5024,6149.1553
26.5194,6148.6804
26.5364,6148.2055
26.5534,6147.7305
26.5704,6147.2556
26.5874,6146.7807
26.6044,6146.3058
26.6214,6145.8309
26.6384,6145.356
26.6554,6144.7078
26.6724,6144.0597
26.6894,6143.4115
26.7064,6142.7634
26.7234,6142.1152
26.7404,6141.467
26.7574,6140.8189
26.7744,6140.1707
26.7914,6139.5226
26.8084,6138.8744
26.8254,6138.2263
26.8424,6137.5781
26.8594,6136.9299
26.8764,6136.2818
26.8934,6135.6336
26.9104,6134.8192
26.9274,6134.0049
26.9444,6133.1905
26.9614,6132.3761
26.9784,6131.5617
26.9954,6130.7473
27.0124,6129.9329
27.0294,6129.1185
27.0464,6128.3041
27.0634,6127.4897
27.0804,6126.6753
27.0974,6125.861
27.1144,6125.0466
27.1314,6124.2322
27.1484,6123.4178
27.1654,6122.444
27.1824,6121.4703
27.1994,6120.4965
27.2164,6119.5227
27.2334,6118.5489
27.2504,6117.5752
27.2674,6116.6014
27.2844,6115.6276
27.3014,6114.6539
27.3184,6113.6801
27.3354,6112.7063
27.3524,6111.7326
27.3694,6110.7588
27.3864,6109.785
27.4034,6108.8113
27.4204,6107.8375
27.4374,6106.8637
27.4544,6105.89
27.4714,6104.9162
27.4884,6103.9424
27.5054,6102.9686
27.5224,6101.9949
27.5394,6101.0211
27.5564,6100.0473
27.5734,6099.0736
27.5904,6098.0998
27.6074,6097.126
27.6244,6096.1523
27.6414,6095.1785
27.6584,6094.2047
27.6754,6093.0716
27.6924,6091.9384
27.7094,6090.8053
27.7264,6089.6721
27.7434,6088.539
27.7604,6087.4058
27.7774,6086.2727
27.7944,6085.1395
27.8114,6084.0064
27.8284,6082.8733
27.8454,6081.7401
27.8624,6080.607
27.8794,6079.4738
27.8964,6078.3407
27.9134,6077.2075
27.9304,6075.9218
27.9474,6074.6362
27.9644,6073.3505
27.9814,6072.0648
27.9984,6070.7791
28.0154,6069.4935
28.0324,6068.2078
28.0494,6066.9221
28.0664,6065.6364
28.0834,6064.3508
28.1004,6063.0651
28.1174,6061.7794
28.1344,6060.4938
28.1514,6059.2081
28.1684,6057.9224
28.1854,6056.4909
28.2024,6055.0594
28.2194,6053.6279
28.2364,6052.1964
28.2534,6050.7649
28.2704,6049.3333
28.2874,6047.9018
28.3044,6046.4703
28.3214,6045.0388
28.3384,6043.6073
28.3554,6042.1758
28.3724,6040.7443
28.3894,6039.3128
28.4064,6037.8813
28.4234,6036.4498
28.4404,6034.8777
28.4574,6033.3056
28.4744,6031.7335
28.4914,6030.1615
28.5084,6028.5894
28.5254,6027.0173
28.5424,6025.4453
28.5594,6023.8732
28.5764,6022.3011
28.5934,6020.7291
28.6104,6019.157
28.6274,6017.5849
28.6444,6016.0129
28.6614,6014.4408
28.6784,6012.8687
28.6954,6011.1596
28.7124,6009.4506
28.7294,6007.7415
28.7464,6006.0324
28.7634,6004.3233
28.7804,6002.6142
28.7974,6000.9052
28.8144,5999.1961
28.8314,5997.487
28.8484,5995.7779
28.8654,5994.0688
28.8824,5992.3598
28.8994,5990.6507
28.9164,5988.9416
28.9334,5987.2325
28.9504,5985.3879
28.9674,5983.5432
28.9844,5981.6986
29.0014,5979.854
29.0184,5978.0093
29.0354,5976.1647
29.0524,5974.3201
29.0694,5972.4754
29.0864,5970.6308
29.1034,5968.7861
29.1204,5966.9415
29.1374,5965.0969
29.1544,5963.2522
29.1714,5961.4076
29.1884,5959.563
29.2054,5957.5508
29.2224,5955.5386
29.2394,5953.5264
29.2564,5951.5142
29.2734,5949.502
29.2904,5947.4898
29.3074,5945.4776
29.3244,5943.4654
29.3414,5941.4532
29.3584,5939.441
29.3754,5937.4288
29.3924,5935.4166
29.4094,5933.4044
29.4264,5931.3922
29.4434,5929.38
29.4604,5928.0673
29.4774,5926.7545
29.4944,5925.4417
29.5114,5924.129
29.5284,5922.8162
29.5454,5921.5035
29.5624,5920.1907
29.5794,5918.878
29.5964,5917.5652
29.6134,5916.2525
29.6304,5914.9397
29.6474,5913.627
29.6644,5912.3142
29.6814,5911.0015
29.6984,5909.6887
29.7154,5908.2434
29.7324,5906.798
29.7494,5905.3527
29.7664,5903.9073
29.7834,5902.462
29.8004,5901.0166
29.8174,5899.5713
29.8344,5898.1259
29.8514,5896.6806
29.8684,5895.2352
29.8854,5893.7899
29.9024,5892.3445
29.9194,5890.8992
29.9364,5889.4538
29.9534,5888.0085
29.9704,5886.5632
29.9874,5885.1178
30.0044,5883.6725
30.0214,5882.2271
30.0384,5880.7818
30.0554,5879.3364
30.0724,5877.8911
30.0894,5876.4457
30.1064,5875.0004
30.1234,5873.555
30.1404,5872.1097
30.1574,5870.6643
30.1744,5869.219
30.1914,5867.7736
30.2084,5866.3283
30.2254,5864.7503
30.2424,5863.1724
30.2594,5861.5945
30.2764,5860.0165
30.2934,5858.4386
30.3104,5856.8606
30.3274,5855.2827
30.3444,5853.7048
30.3614,5852.1268
30.3784,5850.5489
30.3954,5848.9709
30.4124,5847.393
30.4294,5845.815
30.4464,5844.2371
30.4634,5842.6592
30.4804,5840.9173
30.4974,5839.1755
30.5144,5837.4336
30.5314,5835.6918
30.5484,5833.95
30.5654,5832.2081
30.5824,5830.4663
30.5994,5828.7244
30.6164,5826.9826
30.6334,5825.2408
30.6504,5823.4989
30.6674,5821.7571
30.6844,5820.0152
30.7014,5818.2734
30.7184,5816.5316
30.7354,5816.6754
30.7524,5816.8193
30.7694,5816.9631
30.7864,5817.107
30.8034,5817.2508
30.8204,5817.3947
30.8374,5817.5386
30.8544,5817.6824
30.8714,5817.8263
30.8884,5817.9701
30.9054,5818.114
30.9224,5818.2579
30.9394,5818.4017
30.9564,5818.5456
30.9734,5818.6894
30.9904,5818.7292
31.0074,5818.7689
31.0244,5818.8087
31.0414,5818.8485
31.0584,5818.8882
31.0754,5818.928
31.0924,5818.9677
31.1094,5819.0075
31.1264,5819.0473
31.1434,5819.087
31.1604,5819.1268
31.1774,5819.1665
31.1944,5819.2063
31.2114,5819.2461
31.2284,5819.2858
31.2454,5819.2014
31.2624,5819.1169
31.2794,5819.0324
31.2964,5818.948
31.3134,5818.8635
31.3304,5818.7791
31.3474,5818.6946
31.3644,5818.6102
31.3814,5818.5257
31.3984,5818.4412
31.4154,5818.3568
31.4324,5818.2723
31.4494,5818.1879
31.4664,5818.1034
31.4834,5818.019
31.5004,5817.9345
31.5174,5817.85
31.5344,5817.7656
31.5514,5817.6811
31.5684,5817.5967
31.5854,5817.5122
31.6024,5817.4278
31.6194,5817.3433
31.6364,5817.2588
31.6534,5817.1744
31.6704,5817.0899
31.6874,5817.0055
31.7044,5816.921
31.7214,5816.8366
31.7384,5816.7521
31.7554,5816.4749
31.7724,5816.1976
31.7894,5815.9204
31.8064,5815.6431
31.8234,5815.3659
31.8404,5815.0886
31.8574,5814.8113
31.8744,5814.5341
31.8914,5814.2568
31.9084,5813.9796
31.9254,5813.7023
31.9424,5813.4251
31.9594,5813.1478
31.9764,5812.8706
31.9934,5812.5933
32.0104,5812.1798
32.0274,5811.7663
32.0444,5811.3528
32.0614,5810.9393
32.0784,5810.5258
32.0954,5810.1122
32.1124,5809.6987
32.1294,5809.2852
32.1464,5808.8717
32.1634,5808.4582
32.1804,5808.0447
32.1974,5807.6312
32.2144,5807.2176
32.2314,5806.8041
32.2484,5806.3906
32.2654,5805.9771
32.2824,5805.5636
32.2994,5805.1501
32.3164,5804.7366
32.3334,5804.323
32.3504,5803.9095
32.3674,5803.496
32.3844,5803.0825
32.4014,5802.669
32.4184,5802.2555
32.4354,5801.8419
32.4524,5801.4284
32.4694,5801.0149
32.4864,5800.6014
32.5034,5800.1879
32.5204,5800.5697
32.5374,5800.9516
32.5544,5801.3334
32.5714,5801.7152
32.5884,5802.0971
32.6054,5802.4789
32.6224,5802.8608
32.6394,5803.2426
32.6564,5803.6244
32.6734,5804.0063
32.6904,5804.3881
32.7074,5804.7699
32.7244,5805.1518
32.7414,5805.5336
32.7584,5805.9155
32.7754,5806.1447
32.7924,5806.3739
32.8094,5806.6031
32.8264,5806.8323
32.8434,5807.0615
32.8604,5807.2908
32.8774,5807.52
32.8944,5807.7492
32.9114,5807.9784
32.9284,5808.2076
32.9454,5808.4369
32.9624,5808.6661
32.9794,5808.8953
32.9964,5809.1245
33.0134,5809.3537
33.0304,5809.4256
33.0474,5809.4975
33.0644,5809.5694
33.0814,5809.6413
33.0984,5809.7132
33.1154,5809.785
33.1324,5809.8569
33.1494,5809.9288
33.1664,5810.0007
33.1834,5810.0726
33.2004,5810.1445
33.2174,5810.2163
33.2344,5810.2882
33.2514,5810.3601
33.2684,5810.432
33.2854,5810.3417
33.3024,5810.2514
33.3194,5810.1611
33.3364,5810.0708
33.3534,5809.9805
33.3704,5809.8902
33.3874,5809.7999
33.4044,5809.7096
33.4214,5809.6193
33.4384,5809.529
33.4554,5809.4387
33.4724,5809.3484
33.4894,5809.2581
33.5064,5809.1678
33.5234,5809.0775
33.5404,5808.8224
33.5574,5808.5673
33.5744,5808.3122
33.5914,5808.0571
33.6084,5807.802
33.6254,5807.5469
33.6424,5807.2918
33.6594,5807.0367
33.6764,5806.7816
33.6934,5806.5265
33.7104,5806.2714
33.7274,5806.0163
33.7444,5805.7612
33.7614,5805.5061
33.7784,5805.251
33.7954,5804.996
33.8124,5804.7409
33.8294,5804.4858
33.8464,5804.2307
33.8634,5803.9756
33.8804,5803.7205
33.8974,5803.4654
33.9144,5803.2103
33.9314,5802.9552
33.9484,5802.7001
33.9654,5802.445
33.9824,5802.1899
33.9994,5801.9348
34.0164,5801.6797
34.0334,5801.4246
34.0504,5801.0047
34.0674,5800.5848
34.0844,5800.1649
34.1014,5799.745
34.1184,5799.3251
34.1354,5798.9052
34.1524,5798.4853
34.1694,5798.0655
34.1864,5797.6456
34.2034,5797.2257
34.2204,5796.8058
34.2374,5796.3859
34.2544,5795.966
34.2714,5795.5461
34.2884,5795.1262
34.3054,5794.5389
34.3224,5793.9516
34.3394,5793.3643
34.3564,5792.777
34.3734,5792.1897
34.3904,5791.6024
34.4074,5791.0151
34.4244,5790.4278
34.4414,5789.8405
34.4584,5789.2532
34.4754,5788.6659
34.4924,5788.0786
34.5094,5787.4913
34.5264,5786.904
34.5434,5786.3166
34.5604,5785.5616
34.5774,5784.8065
34.5944,5784.0514
34.6114,5783.2963
34.6284,5782.5412
34.6454,5781.7861
34.6624,5781.031
34.6794,5780.2759
34.6964,5779.5208
34.7134,5778.7658
34.7304,5778.0107
34.7474,5777.2556
34.7644,5776.5005
34.7814,5775.7454
34.7984,5774.9903
34.8154,5774.0717
34.8324,5773.153
34.8494,5772.2344
34.8664,5771.3157
34.8834,5770.3971
34.9004,5769.4785
34.9174,5768.5598
34.9344,5767.6412
34.9514,5766.7225
34.9684,5765.8039
34.9854,5764.8853
35.0024,5763.9666
35.0194,5763.048
35.0364,5762.1293
35.0534,5761.2107
35.0704,5760.1364
35.0874,5759.0622
35.1044,5757.9879
35.1214,5756.9137
35.1384,5755.8394
35.1554,5754.7652
35.1724,5753.6909
35.1894,5752.6167
35.2064,5751.5424
35.2234,5750.4682
35.2404,5749.3939
35.2574,5748.3197
35.2744,5747.2454
35.2914,5746.1712
35.3084,5745.0969
35.3254,5744.5879
35.3424,5744.079
35.3594,5743.57
35.3764,5743.061
35.3934,5742.552
35.4104,5742.0431
35.4274,5741.5341
35.4444,5741.0251
35.4614,5740.5161
35.4784,5740.0072
35.4954,5739.4982
35.5124,5738.9892
35.5294,5738.4802
35.5464,5737.9712
35.5634,5737.4623
35.5804,5736.777
35.5974,5736.0917
35.6144,5735.4065
35.6314,5734.7212
35.6484,5734.0359
35.6654,5733.3507
35.6824,5732.6654
35.6994,5731.9802
35.7164,5731.2949
35.7334,5730.6096
35.7504,5729.9244
35.7674,5729.2391
35.7844,5728.5538
35.8014,5727.8686
35.8184,5727.1833
35.8354,5726.498
35.8524,5725.8128
35.8694,5725.1275
35.8864,5724.4422
35.9034,5723.757
35.9204,5723.0717
35.9374,5722.3865
35.9544,5721.7012
35.9714,5721.0159
35.9884,5720.3307
36.0054,5719.6454
36.0224,5718.9601
36.0394,5718.2749
36.0564,5717.5896
36.0734,5716.9043
36.0904,5716.5167
36.1074,5716.129
36.1244,5715.7414
36.1414,5715.3537
36.1584,5714.966
36.1754,5714.5784
36.1924,5714.1907
36.2094,5713.8031
36.2264,5713.4154
36.2434,5713.0277
36.2604,5712.6401
36.2774,5712.2524
36.2944,5711.8648
36.3114,5711.4771
36.3284,5711.0894
36.3454,5710.7018
36.3624,5710.3141
36.3794,5709.9265
36.3964,5709.5388
36.4134,5709.1511
36.4304,5708.7635
36.4474,5708.3758
36.4644,5707.9882
36.4814,5707.6005
36.4984,5707.2128
36.5154,5706.8252
36.5324,5706.4375
36.5494,5706.0499
36.5664,5705.6622
36.5834,5705.2746
36.6004,5704.8271
36.6174,5704.3797
36.6344,5703.9323
36.6514,5703.4849
36.6684,5703.0374
36.6854,5702.59
36.7024,5702.1426
36.7194,5701.6952
36.7364,5701.2478
36.7534,5700.8003
36.7704,5700.3529
36.7874,5699.9055
36.8044,5699.4581
36.8214,5699.0107
36.8384,5698.5632
36.8554,5698.1158
36.8724,5697.6684
36.8894,5697.221
36.9064,5696.7736
36.9234,5696.3261
36.9404,5695.8787
36.9574,5695.4313
36.9744,5694.9839
36.9914,5694.5365
37.0084,5694.089
37.0254,5693.6416
37.0424,5693.1942
37.0594,5692.7468
37.0764,5692.2994
37.0934,5691.8519
37.1104,5691.2366
37.1274,5690.6213
37.1444,5690.0059
37.1614,5689.3906
37.1784,5688.7753
37.1954,5688.16
37.2124,5687.5446
37.2294,5686.9293
37.2464,5686.314
37.2634,5685.6986
37.2804,5685.0833
37.2974,5684.468
37.3144,5683.8526
37.3314,5683.2373
37.3484,5682.622
37.3654,5683.4425
37.3824,5684.2629
37.3994,5685.0834
37.4164,5685.9039
37.4334,5686.7244
37.4504,5687.5448
37.4674,5688.3653
37.4844,5689.1858
37.5014,5690.0063
37.5184,5690.8267
37.5354,5691.6472
37.5524,5692.4677
37.5694,5693.2881
37.5864,5694.1086
37.6034,5694.9291
37.6204,5695.5927
37.6374,5696.2563
37.6544,5696.9199
37.6714,5697.5834
37.6884,5698.247
37.7054,5698.9106
37.7224,5699.5742
37.7394,5700.2378
37.7564,5700.9014
37.7734,5701.565
37.7904,5702.2286
37.8074,5702.8921
37.8244,5703.5557
37.8414,5704.2193
37.8584,5704.8829
37.8754,5705.3794
37.8924,5705.8759
37.9094,5706.3723
37.9264,5706.8688
37.9434,5707.3653
37.9604,5707.8617
37.9774,5708.3582
37.9944,5708.8547
38.0114,5709.3512
38.0284,5709.8476
38.0454,5710.3441
38.0624,5710.8406
38.0794,5711.337
38.0964,5711.8335
38.1134,5712.33
38.1304,5712.6503
38.1474,5712.9705
38.1644,5713.2908
38.1814,5713.6111
38.1984,5713.9313
38.2154,5714.2516
38.2324,5714.5719
38.2494,5714.8922
38.2664,5715.2124
38.2834,5715.5327
38.3004,5715.853
38.3174,5716.1733
38.3344,5716.4935
38.3514,5716.8138
38.3684,5717.1341
38.3854,5717.2746
38.4024,5717.4152
38.4194,5717.5558
38.4364,5717.6963
38.4534,5717.8369
38.4704,5717.9775
38.4874,5718.118
38.5044,5718.2586
38.5214,5718.3992
38.5384,5718.5397
38.5554,5718.6803
38.5724,5718.8209
38.5894,5718.9614
38.6064,5719.102
38.6234,5719.2426
38.6404,5719.3831
38.6574,5719.5237
38.6744,5719.6642
38.6914,5719.8048
38.7084,5719.9454
38.7254,5720.0859
38.7424,5720.2265
38.7594,5720.3671
38.7764,5720.5076
38.7934,5720.6482
38.8104,5720.7888
38.8274,5720.9293
38.8444,5721.0699
38.8614,5721.2105
38.8784,5721.351
38.8954,5721.3119
38.9124,5721.2727
38.9294,5721.2336
38.9464,5721.1944
38.9634,5721.1553
38.9804,5721.1162
