2Theta,Intensity
20.0084,7218.7827
20.0254,7212.4941
20.0424,7206.2055
20.0594,7199.9171
20.0764,7194.5843
20.0934,7188.3008
20.1104,7182.0174
20.1274,7175.7341
20.1444,7169.9287
20.1614,7163.648
20.1784,7157.3675
20.1954,7151.087
20.2124,7144.8067
20.2294,7138.5266
20.2464,7132.2466
20.2634,7125.9667
20.2804,7119.5283
20.2974,7113.0899
20.3144,7106.6518
20.3314,7100.2138
20.3484,7093.7759
20.3654,7087.3382
20.3824,7080.9006
20.3994,7074.4632
20.4164,7068.026
20.4334,7061.5889
20.4504,7055.152
20.4674,7048.7153
20.4844,7042.2787
20.5014,7035.8423
20.5184,7029.4061
20.5354,7022.9701
20.5524,7016.5342
20.5694,7010.0985
20.5864,7003.663
20.6034,6997.2277
20.6204,6990.7926
20.6374,6984.3577
20.6544,6977.923
20.6714,6971.4884
20.6884,6965.0541
20.7054,6958.62
20.7224,6952.1861
20.7394,6945.7524
20.7564,6939.3189
20.7734,6932.8857
20.7904,6926.2939
20.8074,6919.7024
20.8244,6913.111
20.8414,6906.52
20.8584,6899.9291
20.8754,6893.3385
20.8924,6886.7482
20.9094,6880.158
20.9264,6873.5682
20.9434,6866.9786
20.9604,6860.3892
20.9774,6853.8002
20.9944,6847.2114
21.0114,6840.6228
21.0284,6834.0346
21.0454,6830.4546
21.0624,6826.875
21.0794,6823.2956
21.0964,6819.7166
21.1134,6816.1378
21.1304,6812.5594
21.1474,6808.9812
21.1644,6805.4034
21.1814,6801.8259
21.1984,6798.2487
21.2154,6794.6719
21.2324,6791.0954
21.2494,6787.5193
21.2664,6783.9435
21.2834,6780.3681
21.3004,6776.6546
21.3174,6772.9414
21.3344,6769.2286
21.3514,6765.5162
21.3684,6761.8042
21.3854,6758.0926
21.4024,6754.3814
21.4194,6750.6706
21.4364,6746.9602
21.4534,6743.2503
21.4704,6739.5409
21.4874,6735.8318
21.5044,6732.1233
21.5214,6728.4152
21.5384,6724.7076
21.5554,6721.0005
21.5724,6717.2939
21.5894,6713.5878
21.6064,6709.8822
21.6234,6706.1772
21.6404,6702.4727
21.6574,6698.7687
21.6744,6695.0654
21.6914,6691.3626
21.7084,6687.6604
21.7254,6683.9587
21.7424,6680.2577
21.7594,6676.5574
21.7764,6672.8577
21.7934,6669.1586
21.8104,6665.3217
21.8274,6661.4855
21.8444,6657.6499
21.8614,6653.8151
21.8784,6649.9811
21.8954,6646.1478
21.9124,6642.3152
21.9294,6638.4834
21.9464,6634.6525
21.9634,6630.8223
21.9804,6626.993
21.9974,6623.1646
22.0144,6619.3371
22.0314,6615.5104
22.0484,6611.6847
22.0654,6607.6885
22.0824,6603.6932
22.0994,6599.6989
22.1164,6595.7057
22.1334,6591.7135
22.1504,6587.7224
22.1674,6583.7324
22.1844,6579.7435
22.2014,6575.7558
22.2184,6571.7693
22.2354,6567.784
22.2524,6563.7999
22.2694,6559.8172
22.2864,6555.8358
22.3034,6551.8557
22.3204,6547.9387
22.3374,6544.0231
22.3544,6540.109
22.3714,6536.1964
22.3884,6532.2854
22.4054,6528.3761
22.4224,6524.4683
22.4394,6520.5623
22.4564,6516.6581
22.4734,6512.7556
22.4904,6508.855
22.5074,6504.9564
22.5244,6501.0597
22.5414,6497.1651
22.5584,6493.2726
22.5754,6489.2655
22.5924,6485.2607
22.6094,6481.2583
22.6264,6477.2582
22.6434,6473.2606
22.6604,6469.2655
22.6774,6465.2731
22.6944,6461.2834
22.7114,6457.2966
22.7284,6453.3127
22.7454,6449.3318
22.7624,6445.354
22.7794,6441.3795
22.7964,6437.4084
22.8134,6433.4407
22.8304,6429.4767
22.8474,6425.5164
22.8644,6421.56
22.8814,6417.6076
22.8984,6413.6594
22.9154,6409.7156
22.9324,6405.7763
22.9494,6401.8418
22.9664,6397.9121
22.9834,6393.9875
23.0004,6390.0682
23.0174,6386.1545
23.0344,6382.2465
23.0514,6378.3445
23.0684,6374.4488
23.0854,6370.4429
23.1024,6366.4438
23.1194,6362.4519
23.1364,6358.4674
23.1534,6354.4907
23.1704,6350.5222
23.1874,6346.5622
23.2044,6342.6112
23.2214,6338.6695
23.2384,6334.7377
23.2554,6330.8163
23.2724,6326.9057
23.2894,6323.0066
23.3064,6319.1195
23.3234,6315.245
23.3404,6314.5299
23.3574,6313.829
23.3744,6313.1431
23.3914,6312.4732
23.4084,6311.8201
23.4254,6311.1852
23.4424,6310.5696
23.4594,6309.9747
23.4764,6309.4021
23.4934,6308.8535
23.5104,6308.3311
23.5274,6307.837
23.5444,6307.3739
23.5614,6306.945
23.5784,6306.5536
23.5954,6306.0554
23.6124,6305.6034
23.6294,6305.2033
23.6464,6304.8611
23.6634,6304.5842
23.6804,6304.3808
23.6974,6304.2605
23.7144,6304.2343
23.7314,6304.3145
23.7484,6304.5154
23.7654,6304.8528
23.7824,6305.3446
23.7994,6306.0107
23.8164,6306.8732
23.8334,6307.9565
23.8504,6309.287
23.8674,6310.8933
23.8844,6312.8063
23.9014,6315.0586
23.9184,6317.6846
23.9354,6320.7202
23.9524,6324.202
23.9694,6328.1672
23.9864,6332.6529
24.0034,6337.6954
24.0204,6343.3295
24.0374,6349.5876
24.0544,6356.4987
24.0714,6364.0875
24.0884,6372.3736
24.1054,6381.2214
24.1224,6390.785
24.1394,6401.0612
24.1564,6412.0369
24.1734,6423.6876
24.1904,6435.9762
24.2074,6448.8516
24.2244,6462.2468
24.2414,6476.077
24.2584,6490.2383
24.2754,6504.6051
24.2924,6519.0289
24.3094,6533.3367
24.3264,6547.3306
24.3434,6560.7888
24.3604,6573.3206
24.3774,6584.8146
24.3944,6595.0042
24.4114,6603.6261
24.4284,6610.4338
24.4454,6615.2123
24.4624,6617.7924
24.4794,6618.0626
24.4964,6615.9775
24.5134,6611.5611
24.5304,6604.9042
24.5474,6596.1574
24.5644,6585.5197
24.5814,6573.2255
24.5984,6559.53
24.6154,6544.5062
24.6324,6528.604
24.6494,6512.0705
24.6664,6495.1346
24.6834,6478.0027
24.7004,6460.8573
24.7174,6443.857
24.7344,6427.1367
24.7514,6410.8096
24.7684,6394.9688
24.7854,6379.6892
24.8024,6365.0288
24.8194,6351.031
24.8364,6337.7258
24.8534,6325.1314
24.8704,6313.0851
24.8874,6301.7555
24.9044,6291.1331
24.9214,6281.2012
24.9384,6271.9376
24.9554,6263.3153
24.9724,6255.3036
24.9894,6247.8691
25.0064,6240.9763
25.0234,6234.5889
25.0404,6228.6701
25.0574,6223.1833
25.0744,6218.0928
25.0914,6213.3639
25.1084,6208.9637
25.1254,6207.1226
25.1424,6205.5499
25.1594,6204.2187
25.1764,6203.1042
25.1934,6202.184
25.2104,6201.4376
25.2274,6200.8469
25.2444,6200.3957
25.2614,6200.0696
25.2784,6199.856
25.2954,6199.744
25.3124,6199.7241
25.3294,6199.788
25.3464,6199.9288
25.3634,6200.1405
25.3804,6200.2667
25.3974,6200.4546
25.4144,6200.7007
25.4314,6201.0022
25.4484,6201.3567
25.4654,6201.7625
25.4824,6202.2181
25.4994,6202.7226
25.5164,6203.2752
25.5334,6203.8757
25.5504,6204.5239
25.5674,6205.2201
25.5844,6205.9647
25.6014,6206.7585
25.6184,6207.6024
25.6354,6208.3343
25.6524,6209.119
25.6694,6209.9587
25.6864,6210.8553
25.7034,6211.8115
25.7204,6212.8303
25.7374,6213.9151
25.7544,6215.0698
25.7714,6216.2991
25.7884,6217.6082
25.8054,6219.0029
25.8224,6220.4901
25.8394,6222.0776
25.8564,6223.7741
25.8734,6225.5895
25.8904,6227.3581
25.9074,6229.2696
25.9244,6231.3385
25.9414,6233.5808
25.9584,6236.0145
25.9754,6238.6596
25.9924,6241.5386
26.0094,6244.6762
26.0264,6248.0995
26.0434,6251.8385
26.0604,6255.926
26.0774,6260.3976
26.0944,6265.2918
26.1114,6270.6502
26.1284,6276.5171
26.1454,6282.7581
26.1624,6289.6051
26.1794,6297.1108
26.1964,6305.3299
26.2134,6314.3194
26.2304,6324.1378
26.2474,6334.8443
26.2644,6346.4991
26.2814,6359.1617
26.2984,6372.8911
26.3154,6387.7443
26.3324,6403.7757
26.3494,6421.0362
26.3664,6439.5719
26.3834,6459.4233
26.4004,6480.445
26.4174,6502.8417
26.4344,6526.6299
26.4514,6551.8154
26.4684,6578.3925
26.4854,6606.3421
26.5024,6635.6306
26.5194,6666.2085
26.5364,6698.0084
26.5534,6730.9439
26.5704,6764.9071
26.5874,6799.7674
26.6044,6835.3686
26.6214,6871.5277
26.6384,6908.0321
26.6554,6944.4648
26.6724,6980.7226
26.6894,7016.4958
26.7064,7051.4418
26.7234,7085.1867
26.7404,7117.3301
26.7574,7147.4509
26.7744,7175.1165
26.7914,7199.895
26.8084,7221.3694
26.8254,7239.1531
26.8424,7252.9073
26.8594,7262.3563
26.8764,7267.302
26.8934,7267.6335
26.9104,7263.1672
26.9274,7254.1459
26.9444,7240.7355
26.9614,7223.1821
26.9784,7201.7995
26.9954,7176.9536
27.0124,7149.0471
27.0294,7118.5028
27.0464,7085.7499
27.0634,7051.2111
27.0804,7015.2933
27.0974,6978.3794
27.1144,6940.824
27.1314,6902.9502
27.1484,6865.0488
27.1654,6827.2182
27.1824,6789.8446
27.1994,6753.1244
27.2164,6717.2264
27.2334,6682.2931
27.2504,6648.4431
27.2674,6616.2655
27.2844,6584.8538
27.3014,6554.7561
27.3184,6526.0134
27.3354,6498.6516
27.3524,6472.9286
27.3694,6448.3529
27.3864,6425.1579
27.4034,6403.322
27.4204,6382.8153
27.4374,6363.6003
27.4544,6345.6334
27.4714,6328.8659
27.4884,6313.2448
27.5054,6298.7143
27.5224,6285.2164
27.5394,6272.6916
27.5564,6261.0801
27.5734,6250.322
27.5904,6240.3586
27.6074,6231.1321
27.6244,6222.5867
27.6414,6214.6686
27.6584,6207.3264
27.6754,6200.3522
27.6924,6193.8594
27.7094,6187.8051
27.7264,6182.1491
27.7434,6176.8543
27.7604,6171.8867
27.7774,6167.2147
27.7944,6162.8097
27.8114,6158.6456
27.8284,6154.6987
27.8454,6150.9478
27.8624,6147.3736
27.8794,6143.9588
27.8964,6140.688
27.9134,6137.5476
27.9304,6134.3727
27.9474,6131.3048
27.9644,6128.3345
27.9814,6125.453
27.9984,6122.6527
28.0154,6119.927
28.0324,6117.2697
28.0494,6114.6756
28.0664,6112.14
28.0834,6109.6586
28.1004,6107.2276
28.1174,6104.8438
28.1344,6102.504
28.1514,6100.2056
28.1684,6097.9461
28.1854,6095.5774
28.2024,6093.2433
28.2194,6090.942
28.2364,6088.6718
28.2534,6086.4311
28.2704,6084.2185
28.2874,6082.0326
28.3044,6079.8722
28.3214,6077.7361
28.3384,6075.6747
28.3554,6073.5843
28.3724,6071.5152
28.3894,6069.4665
28.4064,6067.4372
28.4234,6065.4524
28.4404,6063.3194
28.4574,6061.2036
28.4744,6059.1044
28.4914,6057.021
28.5084,6054.953
28.5254,6052.8996
28.5424,6050.8603
28.5594,6048.8347
28.5764,6046.8221
28.5934,6044.8222
28.6104,6042.8344
28.6274,6040.8583
28.6444,6038.8936
28.6614,6036.9397
28.6784,6034.9963
28.6954,6032.9261
28.7124,6030.8656
28.7294,6028.8146
28.7464,6026.7728
28.7634,6024.7397
28.7804,6022.7152
28.7974,6020.699
28.8144,6018.6908
28.8314,6016.6902
28.8484,6014.6972
28.8654,6012.7113
28.8824,6010.7325
28.8994,6008.7605
28.9164,6006.795
28.9334,6004.8359
28.9504,6002.7474
28.9674,6000.665
28.9844,5998.5883
29.0014,5996.5172
29.0184,5994.4517
29.0354,5992.3914
29.0524,5990.3363
29.0694,5988.2862
29.0864,5986.2409
29.1034,5984.2004
29.1204,5982.1645
29.1374,5980.133
29.1544,5978.1059
29.1714,5976.083
29.1884,5974.0642
29.2054,5971.8818
29.2224,5969.7033
29.2394,5967.5286
29.2564,5965.3576
29.2734,5963.1902
29.2904,5961.0263
29.3074,5958.8658
29.3244,5956.7086
29.3414,5954.5546
29.3584,5952.4038
29.3754,5950.2561
29.3924,5948.1114
29.4094,5945.9696
29.4264,5943.8307
29.4434,5941.6946
29.4604,5940.2607
29.4774,5938.8294
29.4944,5937.4007
29.5114,5935.9746
29.5284,5934.5509
29.5454,5933.1297
29.5624,5931.7109
29.5794,5930.2944
29.5964,5928.8802
29.6134,5927.4681
29.6304,5926.0583
29.6474,5924.6506
29.6644,5923.245
29.6814,5921.8415
29.6984,5920.4399
29.7154,5918.9078
29.7324,5917.3775
29.7494,5915.8491
29.7664,5914.3226
29.7834,5912.798
29.8004,5911.275
29.8174,5909.7539
29.8344,5908.2345
29.8514,5906.7167
29.8684,5905.2006
29.8854,5903.6862
29.9024,5902.1733
29.9194,5900.662
29.9364,5899.1523
29.9534,5897.6441
29.9704,5896.1373
29.9874,5894.6321
30.0044,5893.1283
30.0214,5891.6259
30.0384,5890.125
30.0554,5888.6254
30.0724,5886.7948
30.0894,5885.3
30.1064,5883.8064
30.1234,5882.3142
30.1404,5880.6574
30.1574,5879.1888
30.1744,5877.7015
30.1914,5876.2154
30.2084,5874.7304
30.2254,5873.1141
30.2424,5871.509
30.2594,5869.8951
30.2764,5868.2824
30.2934,5866.6707
30.3104,5865.0603
30.3274,5863.4509
30.3444,5861.8427
30.3614,5860.2355
30.3784,5858.6295
30.3954,5857.0245
30.4124,5855.4207
30.4294,5853.8178
30.4464,5852.2161
30.4634,5850.6154
30.4804,5848.8519
30.4974,5847.0894
30.5144,5845.3279
30.5314,5843.5675
30.5484,5841.8081
30.5654,5840.0497
30.5824,5838.2924
30.5994,5836.536
30.6164,5834.7807
30.6334,5833.0264
30.6504,5831.2731
30.6674,5829.5208
30.6844,5827.7696
30.7014,5826.0193
30.7184,5824.2701
30.7354,5824.4075
30.7524,5824.546
30.7694,5824.6855
30.7864,5824.826
30.8034,5824.9675
30.8204,5825.11
30.8374,5825.2535
30.8544,5825.3981
30.8714,5825.5437
30.8884,5825.6904
30.9054,5825.838
30.9224,5825.9867
30.9394,5826.1365
30.9564,5826.2873
30.9734,5826.4392
30.9904,5826.4881
31.0074,5826.538
31.0244,5826.589
31.0414,5826.6412
31.0584,5826.6944
31.0754,5826.7487
31.0924,5826.8042
31.1094,5826.8608
31.1264,5826.9185
31.1434,5826.9775
31.1604,5827.0376
31.1774,5827.0988
31.1944,5827.1613
31.2114,5827.225
31.2284,5827.29
31.2454,5827.2319
31.2624,5827.1752
31.2794,5827.1197
31.2964,5827.0656
31.3134,5827.0127
31.3304,5826.9612
31.3474,5826.9111
31.3644,5826.8624
31.3814,5826.815
31.3984,5826.7691
31.4154,5826.7247
31.4324,5826.6818
31.4494,5826.6403
31.4664,5826.6004
31.4834,5826.5621
31.5004,5826.5254
31.5174,5826.4903
31.5344,5826.4569
31.5514,5826.4925
31.5684,5826.4628
31.5854,5826.4349
31.6024,5826.4089
31.6194,5826.3847
31.6364,5826.3623
31.6534,5826.3756
31.6704,5826.3574
31.6874,5826.3411
31.7044,5826.327
31.7214,5826.3149
31.7384,5826.3051
31.7554,5826.1046
31.7724,5825.9065
31.7894,5825.7107
31.8064,5825.5173
31.8234,5825.3263
31.8404,5825.1378
31.8574,5824.952
31.8744,5824.7688
31.8914,5824.5883
31.9084,5824.4107
31.9254,5824.2359
31.9424,5824.0641
31.9594,5823.8953
31.9764,5823.7297
31.9934,5823.5673
32.0104,5823.272
32.0274,5822.98
32.0444,5822.6917
32.0614,5822.4069
32.0784,5822.1259
32.0954,5821.8487
32.1124,5821.5755
32.1294,5821.3064
32.1464,5821.0416
32.1634,5820.7811
32.1804,5820.5252
32.1974,5820.2739
32.2144,5820.0275
32.2314,5819.786
32.2484,5819.5497
32.2654,5819.3187
32.2824,5819.0933
32.2994,5818.8736
32.3164,5818.6598
32.3334,5818.4521
32.3504,5818.2508
32.3674,5818.0561
32.3844,5817.8682
32.4014,5817.6874
32.4184,5817.514
32.4354,5817.5616
32.4524,5817.4048
32.4694,5817.2563
32.4864,5817.1164
32.5034,5816.9854
32.5204,5817.6591
32.5374,5818.4492
32.5544,5819.1432
32.5714,5819.8477
32.5884,5820.5631
32.6054,5821.29
32.6224,5822.0289
32.6394,5822.7802
32.6564,5823.5446
32.6734,5824.3226
32.6904,5825.115
32.7074,5825.9223
32.7244,5826.7455
32.7414,5827.5852
32.7584,5828.4423
32.7754,5829.1652
32.7924,5829.9075
32.8094,5830.6703
32.8264,5831.4549
32.8434,5832.2627
32.8604,5833.0951
32.8774,5833.9537
32.8944,5834.8406
32.9114,5835.7577
32.9284,5836.7073
32.9454,5837.6922
32.9624,5838.7151
32.9794,5839.7793
32.9964,5840.8887
33.0134,5842.0475
33.0304,5843.1029
33.0474,5844.2179
33.0644,5845.3983
33.0814,5846.651
33.0984,5847.9838
33.1154,5849.4052
33.1324,5850.9251
33.1494,5852.5541
33.1664,5854.3046
33.1834,5856.1898
33.2004,5858.2248
33.2174,5860.426
33.2344,5862.8116
33.2514,5865.4014
33.2684,5868.217
33.2854,5871.1196
33.3024,5874.2967
33.3194,5877.7753
33.3364,5881.5842
33.3534,5885.754
33.3704,5890.3166
33.3874,5895.3054
33.4044,5900.7551
33.4214,5906.701
33.4384,5913.1791
33.4554,5920.2256
33.4724,5927.8761
33.4894,5936.1658
33.5064,5945.1283
33.5234,5954.7955
33.5404,5965.0316
33.5574,5976.0275
33.5744,5987.8051
33.5914,6000.3817
33.6084,6013.769
33.6254,6027.9725
33.6424,6042.9905
33.6594,6058.8132
33.6764,6074.4718
33.6934,6091.8424
33.7104,6109.9304
33.7274,6128.684
33.7444,6147.5631
33.7614,6167.4402
33.7784,6187.7427
33.7954,6208.3583
33.8124,6229.1569
33.8294,6249.9901
33.8464,6270.6912
33.8634,6291.0754
33.8804,6310.9416
33.8974,6330.0746
33.9144,6348.2488
33.9314,6365.2325
33.9484,6380.7933
33.9654,6394.7045
33.9824,6406.7517
33.9994,6416.7403
34.0164,6424.5022
34.0334,6429.9029
34.0504,6432.6821
34.0674,6432.9523
34.0844,6430.7071
34.1014,6425.9856
34.1184,6418.8712
34.1354,6409.4875
34.1524,6397.9928
34.1694,6384.5739
34.1864,6369.4384
34.2034,6352.808
34.2204,6334.9106
34.2374,6315.9744
34.2544,6296.2222
34.2714,6275.8665
34.2884,6255.1068
34.3054,6233.9591
34.3224,6212.7575
34.3394,6191.6509
34.3564,6170.7705
34.3734,6150.2307
34.3904,6130.1297
34.4074,6110.5503
34.4244,6091.5615
34.4414,6073.2195
34.4584,6055.5684
34.4754,6038.6419
34.4924,6022.4639
34.5094,6007.0497
34.5264,5992.4067
34.5434,5978.5352
34.5604,5965.2618
34.5774,5952.743
34.5944,5940.963
34.6114,5929.9017
34.6284,5919.5357
34.6454,5909.839
34.6624,5900.7829
34.6794,5892.3374
34.6964,5884.471
34.7134,5877.1518
34.7304,5870.347
34.7474,5864.0244
34.7644,5858.1518
34.7814,5852.6978
34.7984,5847.6317
34.8154,5842.7605
34.8324,5838.2196
34.8494,5833.9822
34.8664,5830.0228
34.8834,5826.3178
34.9004,5822.8449
34.9174,5819.5837
34.9344,5816.515
34.9514,5813.6216
34.9684,5810.8876
34.9854,5808.2986
35.0024,5805.8418
35.0194,5803.5054
35.0364,5801.2794
35.0534,5799.1546
35.0704,5796.9674
35.0874,5794.8673
35.1044,5792.8471
35.1214,5790.9023
35.1384,5789.0288
35.1554,5787.2233
35.1724,5785.4831
35.1894,5783.806
35.2064,5782.1909
35.2234,5780.6359
35.2404,5779.1408
35.2574,5777.7052
35.2744,5776.3291
35.2914,5775.0127
35.3084,5773.7562
35.3254,5773.1252
35.3424,5772.5547
35.3594,5772.0449
35.3764,5771.5959
35.3934,5771.2073
35.4104,5770.8787
35.4274,5770.6089
35.4444,5770.3966
35.4614,5770.2396
35.4784,5770.1351
35.4954,5770.0797
35.5124,5770.069
35.5294,5770.0974
35.5464,5770.1586
35.5634,5770.2448
35.5804,5770.1706
35.5974,5770.1021
35.6144,5770.0274
35.6314,5769.9333
35.6484,5769.8056
35.6654,5769.6292
35.6824,5769.3885
35.6994,5769.1224
35.7164,5768.7087
35.7334,5768.1888
35.7504,5767.5524
35.7674,5766.7927
35.7844,5765.906
35.8014,5764.8924
35.8184,5763.7824
35.8354,5762.5287
35.8524,5761.1675
35.8694,5759.7105
35.8864,5758.1707
35.9034,5756.562
35.9204,5754.8987
35.9374,5753.1949
35.9544,5751.4639
35.9714,5749.7182
35.9884,5747.9691
36.0054,5746.2266
36.0224,5744.4994
36.0394,5742.7949
36.0564,5741.1192
36.0734,5739.4774
36.0904,5738.1711
36.1074,5736.9058
36.1244,5735.6836
36.1414,5734.5059
36.1584,5733.3736
36.1754,5732.2868
36.1924,5731.2452
36.2094,5730.2479
36.2264,5729.2938
36.2434,5728.3814
36.2604,5727.5091
36.2774,5726.7445
36.2944,5725.9465
36.3114,5725.1825
36.3284,5724.4501
36.3454,5723.7471
36.3624,5723.0714
36.3794,5722.4209
36.3964,5721.8284
36.4134,5721.2224
36.4304,5720.6356
36.4474,5720.0665
36.4644,5719.5134
36.4814,5718.9748
36.4984,5718.4495
36.5154,5717.9362
36.5324,5717.4339
36.5494,5716.9415
36.5664,5716.4583
36.5834,5715.9834
36.6004,5715.4565
36.6174,5714.9368
36.6344,5714.4236
36.6514,5713.9166
36.6684,5713.4155
36.6854,5712.9199
36.7024,5712.4294
36.7194,5711.944
36.7364,5711.4634
36.7534,5710.9874
36.7704,5710.5159
36.7874,5710.0487
36.8044,5709.5859
36.8214,5709.1273
36.8384,5708.6728
36.8554,5708.2225
36.8724,5707.7763
36.8894,5707.3342
36.9064,5706.8961
36.9234,5706.4622
36.9404,5706.0323
36.9574,5705.6066
36.9744,5705.1851
36.9914,5704.7678
37.0084,5704.3547
37.0254,5703.9461
37.0424,5703.5418
37.0594,5703.1421
37.0764,5702.747
37.0934,5702.3567
37.1104,5701.8034
37.1274,5701.2551
37.1444,5700.712
37.1614,5700.1743
37.1784,5699.6423
37.1954,5699.1162
37.2124,5698.5962
37.2294,5698.0827
37.2464,5697.576
37.2634,5697.0766
37.2804,5696.5849
37.2974,5696.1013
37.3144,5695.6265
37.3314,5695.1611
37.3484,5694.7059
37.3654,5695.6974
37.3824,5696.7008
37.3994,5697.717
37.4164,5698.7473
37.4334,5699.793
37.4504,5700.8553
37.4674,5701.936
37.4844,5703.0367
37.5014,5704.1594
37.5184,5705.3061
37.5354,5706.4792
37.5524,5707.6812
37.5694,5708.9147
37.5864,5710.1826
37.6034,5711.4882
37.6204,5712.6777
37.6374,5713.9116
37.6544,5715.1937
37.6714,5716.5277
37.6884,5717.9177
37.7054,5719.3679
37.7224,5720.8824
37.7394,5722.4656
37.7564,5724.1218
37.7734,5725.8552
37.7904,5727.67
37.8074,5729.5703
37.8244,5731.5598
37.8414,5733.6421
37.8584,5735.8205
37.8754,5737.9304
37.8924,5740.1415
37.9094,5742.4552
37.9264,5744.8727
37.9434,5747.3942
37.9604,5750.0192
37.9774,5752.746
37.9944,5755.5723
38.0114,5758.4942
38.0284,5761.5069
38.0454,5764.6041
38.0624,5767.7779
38.0794,5771.019
38.0964,5774.3162
38.1134,5777.6563
38.1304,5780.8483
38.1474,5784.0512
38.1644,5787.2457
38.1814,5790.4178
38.1984,5793.5302
38.2154,5796.565
38.2324,5799.4965
38.2494,5802.2981
38.2664,5804.9435
38.2834,5807.4078
38.3004,5809.6716
38.3174,5811.7081
38.3344,5813.5056
38.3514,5815.054
38.3684,5816.349
38.3854,5817.213
38.4024,5817.8343
38.4194,5818.2278
38.4364,5818.4141
38.4534,5818.4194
38.4704,5818.2742
38.4874,5818.0128
38.5044,5817.672
38.5214,5817.2905
38.5384,5816.9079
38.5554,5816.564
38.5724,5816.298
38.5894,5816.148
38.6064,5816.1506
38.6234,5816.3405
38.6404,5816.7503
38.6574,5817.4103
38.6744,5818.3484
38.6914,5819.5898
38.7084,5821.1573
38.7254,5823.0708
38.7424,5825.3473
38.7594,5828.001
38.7764,5831.0428
38.7934,5834.4806
38.8104,5838.3188
38.8274,5842.5582
38.8444,5847.1958
38.8614,5852.2247
38.8784,5857.6338
38.8954,5863.2278
38.9124,5869.1658
38.9294,5875.4224
38.9464,5881.9667
38.9634,5888.7619
38.9804,5895.7649
