2Theta,Intensity
20.0084,7218.0
20.0254,7277.3068
20.0424,7189.7079
20.0594,7425.3287
20.0764,7275.2554
20.0934,7167.0656
20.1104,7385.7056
20.1274,7174.6194
20.1444,7227.3738
20.1614,7199.9596
20.1784,7166.7803
20.1954,7263.6411
20.2124,7151.3551
20.2294,7232.7754
20.2464,7223.534
20.2634,7162.7903
20.2804,7058.3654
20.2974,7052.7488
20.3144,7095.3059
20.3314,7147.0248
20.3484,7208.7331
20.3654,7189.5844
20.3824,7080.9183
20.3994,7069.0131
20.4164,7119.4915
20.4334,7131.9367
20.4504,7060.2305
20.4674,7052.5412
20.4844,7177.9698
20.5014,7209.7309
20.5184,7086.665
20.5354,7144.5606
20.5524,7104.1972
20.5694,7073.3411
20.5864,7087.1391
20.6034,7065.1151
20.6204,7038.7182
20.6374,7050.6531
20.6544,7033.7987
20.6714,7034.1719
20.6884,7104.1994
20.7054,7115.7072
20.7224,6995.0713
20.7394,6961.6582
20.7564,7072.1904
20.7734,7133.2123
20.7904,7080.5974
20.8074,7249.335
20.8244,6985.9787
20.8414,7027.1322
20.8584,6954.4286
20.8754,7003.4434
20.8924,6871.8439
20.9094,6985.1157
20.9264,7096.8301
20.9434,7159.1156
20.9604,6943.3344
20.9774,6977.3626
20.9944,7028.8802
21.0114,6966.3411
21.0284,6683.8124
21.0454,6790.5801
21.0624,6901.0863
21.0794,6861.2463
21.0964,7086.1445
21.1134,6892.8572
21.1304,6991.8112
21.1474,6882.3305
21.1644,6976.3102
21.1814,6912.9568
21.1984,6923.1302
21.2154,6854.9843
21.2324,6808.1443
21.2494,6804.8922
21.2664,6911.0652
21.2834,7000.678
21.3004,6835.9074
21.3174,6871.3481
21.3344,6889.2069
21.3514,6927.5403
21.3684,6903.214
21.3854,6869.9974
21.4024,6879.2515
21.4194,6798.1531
21.4364,6759.0784
21.4534,6855.8744
21.4704,6809.4124
21.4874,6742.9054
21.5044,6699.3763
21.5214,6749.3546
21.5384,6810.0051
21.5554,6700.1312
21.5724,6694.6927
21.5894,6747.2136
21.6064,6806.041
21.6234,6774.2971
21.6404,6807.4758
21.6574,6718.953
21.6744,6726.2411
21.6914,6731.133
21.7084,6740.6496
21.7254,6817.2887
21.7424,6770.8668
21.7594,6821.5024
21.7764,6690.5942
21.7934,6678.0528
21.8104,6732.2228
21.8274,6591.7791
21.8444,6597.0414
21.8614,6618.782
21.8784,6702.949
21.8954,6598.1908
21.9124,6646.9109
21.9294,6710.047
21.9464,6650.9425
21.9634,6601.6275
21.9804,6754.4913
21.9974,6634.5156
22.0144,6663.155
22.0314,6776.2622
22.0484,6537.6042
22.0654,6654.2892
22.0824,6604.519
22.0994,6590.2574
22.1164,6642.2607
22.1334,6662.2952
22.1504,6525.6448
22.1674,6596.4086
22.1844,6530.2498
22.2014,6599.7119
22.2184,6613.1638
22.2354,6653.5067
22.2524,6600.7162
22.2694,6600.7803
22.2864,6539.4114
22.3034,6547.8315
22.3204,6486.5031
22.3374,6634.7561
22.3544,6609.8199
22.3714,6556.3955
22.3884,6600.6793
22.4054,6563.4892
22.4224,6533.5399
22.4394,6465.6408
22.4564,6414.041
22.4734,6409.1892
22.4904,6478.2082
22.5074,6510.4251
22.5244,6455.6613
22.5414,6587.4174
22.5584,6564.4557
22.5754,6549.249
22.5924,6443.6931
22.6094,6481.8431
22.6264,6474.0665
22.6434,6433.3561
22.6604,6463.203
22.6774,6452.4846
22.6944,6437.8909
22.7114,6504.7371
22.7284,6539.4663
22.7454,6435.1258
22.7624,6499.2791
22.7794,6384.237
22.7964,6442.1877
22.8134,6474.4637
22.8304,6509.1192
22.8474,6382.0809
22.8644,6365.0
22.8814,6485.5093
22.8984,6485.6908
22.9154,6340.8745
22.9324,6546.8135
22.9494,6366.0735
22.9664,6340.1198
22.9834,6360.6037
23.0004,6427.5721
23.0174,6449.4302
23.0344,6561.1124
23.0514,6279.1737
23.0684,6490.3839
23.0854,6369.599
23.1024,6414.6483
23.1194,6450.1167
23.1364,6432.6862
23.1534,6467.7778
23.1704,6512.7178
23.1874,6358.7843
23.2044,6436.0145
23.2214,6384.6045
23.2384,6309.0465
23.2554,6406.2974
23.2724,6338.9038
23.2894,6331.6242
23.3064,6311.463
23.3234,6331.8729
23.3404,6294.8552
23.3574,6220.451
23.3744,6327.5132
23.3914,6425.1355
23.4084,6394.2804
23.4254,6385.3514
23.4424,6399.5555
23.4594,6367.9559
23.4764,6316.2089
23.4934,6408.0201
23.5104,6320.0138
23.5274,6262.6113
23.5444,6349.2812
23.5614,6384.4961
23.5784,6385.6642
23.5954,6407.6334
23.6124,6336.8401
23.6294,6304.9225
23.6464,6290.0777
23.6634,6328.1695
23.6804,6205.7304
23.6974,6292.6102
23.7144,6248.5504
23.7314,6326.8129
23.7484,6211.8061
23.7654,6375.6786
23.7824,6310.5321
23.7994,6273.6476
23.8164,6306.6777
23.8334,6247.215
23.8504,6288.7609
23.8674,6286.6238
23.8844,6141.3481
23.9014,6263.0509
23.9184,6293.3463
23.9354,6240.4789
23.9524,6249.9243
23.9694,6238.791
23.9864,6160.2846
24.0034,6286.3736
24.0204,6413.5116
24.0374,6374.7491
24.0544,6413.4403
24.0714,6487.6818
24.0884,6314.7623
24.1054,6286.8974
24.1224,6400.1568
24.1394,6340.6017
24.1564,6410.776
24.1734,6287.4368
24.1904,6313.2905
24.2074,6419.2109
24.2244,6416.8908
24.2414,6480.847
24.2584,6618.8978
24.2754,6441.4724
24.2924,6416.4505
24.3094,6513.0203
24.3264,6626.8412
24.3434,6566.1163
24.3604,6516.7305
24.3774,6505.3686
24.3944,6575.8135
24.4114,6648.7141
24.4284,6609.3902
24.4454,6675.4919
24.4624,6620.4092
24.4794,6657.347
24.4964,6644.0383
24.5134,6567.7857
24.5304,6578.5543
24.5474,6567.6719
24.5644,6508.1981
24.5814,6495.8397
24.5984,6469.0922
24.6154,6504.2144
24.6324,6547.1874
24.6494,6433.8623
24.6664,6443.2574
24.6834,6357.3088
24.7004,6430.376
24.7174,6543.162
24.7344,6528.8569
24.7514,6318.1676
24.7684,6397.147
24.7854,6300.4433
24.8024,6196.2602
24.8194,6258.7237
24.8364,6334.1997
24.8534,6236.5741
24.8704,6437.9323
24.8874,6266.9338
24.9044,6311.7016
24.9214,6199.7714
24.9384,6247.6637
24.9554,6211.1648
24.9724,6053.8975
24.9894,6304.3167
25.0064,6274.9393
25.0234,6232.7481
25.0404,6278.0276
25.0574,6279.8216
25.0744,6222.6395
25.0914,6118.2094
25.1084,6083.6117
25.1254,6188.8503
25.1424,6232.1162
25.1594,6124.241
25.1764,6123.2302
25.1934,6177.2014
25.2104,6139.9042
25.2274,6174.91
25.2444,6200.0732
25.2614,6211.6121
25.2784,6136.9919
25.2954,6107.7086
25.3124,6254.4533
25.3294,6295.5134
25.3464,6219.1346
25.3634,6049.4574
25.3804,6182.9358
25.3974,6283.4022
25.4144,6297.4943
25.4314,6261.1675
25.4484,6208.5483
25.4654,6283.6555
25.4824,6255.3353
25.4994,6114.0294
25.5164,6170.4556
25.5334,6241.0761
25.5504,6251.2226
25.5674,6215.0637
25.5844,6245.6978
25.6014,6216.5686
25.6184,6225.3792
25.6354,6172.424
25.6524,6262.315
25.6694,6190.2292
25.6864,6222.3654
25.7034,6098.0073
25.7204,6274.8155
25.7374,6262.8404
25.7544,6130.583
25.7714,6143.1417
25.7884,6182.2269
25.8054,6119.2331
25.8224,6116.4537
25.8394,6276.3107
25.8564,6255.0339
25.8734,6302.9606
25.8904,6040.9244
25.9074,6092.7295
25.9244,6296.4162
25.9414,6325.7718
25.9584,6222.5094
25.9754,6249.9066
25.9924,6209.0045
26.0094,6273.8002
26.0264,6438.5349
26.0434,6306.5759
26.0604,6219.1842
26.0774,6255.513
26.0944,6261.3315
26.1114,6272.848
26.1284,6343.4809
26.1454,6346.4194
26.1624,6365.2055
26.1794,6288.8607
26.1964,6329.1796
26.2134,6331.1797
26.2304,6330.6208
26.2474,6343.0236
26.2644,6353.6074
26.2814,6425.8808
26.2984,6409.6513
26.3154,6371.18
26.3324,6421.7004
26.3494,6480.7753
26.3664,6469.3855
26.3834,6523.2229
26.4004,6550.7132
26.4174,6518.4317
26.4344,6496.3552
26.4514,6523.954
26.4684,6574.0064
26.4854,6642.2775
26.5024,6623.3947
26.5194,6609.5452
26.5364,6692.6338
26.5534,6819.0045
26.5704,6855.2934
26.5874,6743.6017
26.6044,6742.1491
26.6214,6823.2846
26.6384,6796.7974
26.6554,6908.1992
26.6724,6959.2739
26.6894,6892.4707
26.7064,7129.9407
26.7234,7107.7092
26.7404,7167.4584
26.7574,7250.7373
26.7744,7225.1872
26.7914,7413.0547
26.8084,7228.2807
26.8254,7402.9487
26.8424,7304.5274
26.8594,7287.4083
26.8764,7226.2301
26.8934,7505.28
26.9104,7456.9251
26.9274,7318.4159
26.9444,7332.1332
26.9614,7348.1438
26.9784,7250.2408
26.9954,7078.2022
27.0124,7098.7042
27.0294,7191.3334
27.0464,6901.3409
27.0634,6941.8298
27.0804,6897.8769
27.0974,6725.9481
27.1144,6752.6914
27.1314,6676.0268
27.1484,6784.3358
27.1654,6778.115
27.1824,6702.2258
27.1994,6566.3323
27.2164,6560.3251
27.2334,6686.9002
27.2504,6493.2929
27.2674,6512.2961
27.2844,6486.288
27.3014,6475.5879
27.3184,6442.7966
27.3354,6409.3798
27.3524,6396.8755
27.3694,6340.6085
27.3864,6291.0574
27.4034,6332.3447
27.4204,6414.5861
27.4374,6309.3254
27.4544,6299.7891
27.4714,6324.625
27.4884,6297.0215
27.5054,6286.1336
27.5224,6192.9543
27.5394,6210.3987
27.5564,6172.5034
27.5734,6224.4449
27.5904,6345.1693
27.6074,6378.2769
27.6244,6262.5014
27.6414,6237.1531
27.6584,6248.9744
27.6754,6319.9221
27.6924,6223.053
27.7094,6238.1649
27.7264,6200.5777
27.7434,6214.3943
27.7604,6114.3256
27.7774,6160.9194
27.7944,6218.2233
27.8114,6154.1482
27.8284,6132.889
27.8454,6214.0237
27.8624,6016.6185
27.8794,6159.9324
27.8964,6167.5045
27.9134,6196.284
27.9304,6169.4243
27.9474,6060.2198
27.9644,6222.0473
27.9814,6185.5731
27.9984,6230.1445
28.0154,6191.8057
28.0324,6104.2791
28.0494,5993.2655
28.0664,6099.9594
28.0834,6170.2427
28.1004,6094.7052
28.1174,5990.2442
28.1344,6060.6117
28.1514,6112.7494
28.1684,6040.8707
28.1854,6046.7173
28.2024,6092.2384
28.2194,5942.6595
28.2364,5968.0141
28.2534,6136.7867
28.2704,6102.7722
28.2874,6132.373
28.3044,6093.8503
28.3214,6032.2532
28.3384,6161.2038
28.3554,6153.6502
28.3724,6136.9858
28.3894,6047.3197
28.4064,6040.823
28.4234,6142.7463
28.4404,6086.7084
28.4574,5982.3682
28.4744,6029.3023
28.4914,6002.0374
28.5084,5972.3315
28.5254,5976.4074
28.5424,6025.1759
28.5594,6033.4245
28.5764,6140.6834
28.5934,6040.0592
28.6104,6027.0637
28.6274,6054.1561
28.6444,6087.5273
28.6614,6086.4683
28.6784,6117.2751
28.6954,6136.6041
28.7124,6012.0785
28.7294,6011.4489
28.7464,6067.8419
28.7634,6062.4283
28.7804,6065.5763
28.7974,6026.8337
28.8144,5987.9073
28.8314,6134.9314
28.8484,6159.6873
28.8654,5981.8604
28.8824,5901.7678
28.8994,6142.9189
28.9164,5983.4064
28.9334,6031.0942
28.9504,6101.6092
28.9674,6139.4212
28.9844,6135.0319
29.0014,6072.9649
29.0184,6039.1715
29.0354,6037.0814
29.0524,6059.7023
29.0694,5940.8101
29.0864,6099.2212
29.1034,6033.5388
29.1204,6027.9568
29.1374,6047.8029
29.1544,6059.4468
29.1714,5990.7074
29.1884,6040.5022
29.2054,5996.5095
29.2224,6087.3369
29.2394,6000.1938
29.2564,5933.8979
29.2734,6051.1197
29.2904,6020.7723
29.3074,5918.9705
29.3244,6006.6005
29.3414,5978.3044
29.3584,5943.7505
29.3754,6031.0777
29.3924,6113.0544
29.4094,6045.6401
29.4264,5889.5245
29.4434,5858.3851
29.4604,5955.2521
29.4774,5986.1727
29.4944,5962.7454
29.5114,5922.774
29.5284,5861.0945
29.5454,5868.4026
29.5624,6023.7149
29.5794,5972.9047
29.5964,6025.0725
29.6134,5996.8133
29.6304,6052.797
29.6474,5909.939
29.6644,5999.8178
29.6814,5921.1432
29.6984,5996.5482
29.7154,5996.6895
29.7324,5917.1963
29.7494,5939.4028
29.7664,5862.2727
29.7834,5947.5287
29.8004,5965.4229
29.8174,5899.126
29.8344,6037.0783
29.8514,5804.0858
29.8684,6090.4143
29.8854,5962.7997
29.9024,5787.2242
29.9194,5877.5299
29.9364,5903.3093
29.9534,5959.9109
29.9704,5909.8528
29.9874,5966.8893
30.0044,5918.0056
30.0214,5827.06
30.0384,5858.5969
30.0554,5909.1003
30.0724,5890.5823
30.0894,5857.8951
30.1064,5902.5538
30.1234,6010.9025
30.1404,6064.0891
30.1574,5955.6733
30.1744,5883.0434
30.1914,5870.431
30.2084,5870.771
30.2254,5934.276
30.2424,6049.5029
30.2594,5988.795
30.2764,5954.2158
30.2934,5912.8641
30.3104,5940.2621
30.3274,5991.9251
30.3444,5954.1116
30.3614,5915.5662
30.3784,5973.6318
30.3954,5937.3925
30.4124,5839.583
30.4294,5882.6214
30.4464,5959.64
30.4634,5940.5785
30.4804,5972.2994
30.4974,5894.0515
30.5144,5829.8691
30.5314,5901.7386
30.5484,5966.3336
30.5654,6061.4227
30.5824,5981.4911
30.5994,5876.7715
30.6164,5891.1557
30.6334,5912.1792
30.6504,5892.1578
30.6674,5867.0063
30.6844,5910.6195
30.7014,5831.3698
30.7184,5731.2795
30.7354,5864.3489
30.7524,5828.5103
30.7694,5872.7103
30.7864,5830.2074
30.8034,5869.7655
30.8204,5922.4056
30.8374,5909.2339
30.8544,5946.1557
30.8714,5829.3937
30.8884,5904.9819
30.9054,5831.695
30.9224,5935.4951
30.9394,5910.0895
30.9564,5965.4887
30.9734,5841.1695
30.9904,5865.6471
31.0074,5884.104
31.0244,5845.3622
31.0414,5888.5892
31.0584,5898.8151
31.0754,5992.0936
31.0924,6007.9585
31.1094,5912.7989
31.1264,5915.1143
31.1434,5891.6832
31.1604,5904.699
31.1774,5908.4563
31.1944,5871.2675
31.2114,5825.2647
31.2284,5795.888
31.2454,5903.2409
31.2624,5909.4885
31.2794,5872.4379
31.2964,5855.0
31.3134,5771.7646
31.3304,5721.4966
31.3474,5841.9164
31.3644,5933.0778
31.3814,5806.9936
31.3984,5764.8169
31.4154,5852.5636
31.4324,5813.0592
31.4494,5793.6023
31.4664,5797.3232
31.4834,5808.5599
31.5004,5851.6634
31.5174,5846.3945
31.5344,6012.7003
31.5514,5929.3836
31.5684,5829.5705
31.5854,5906.1614
31.6024,5948.1001
31.6194,5928.7821
31.6364,5815.8558
31.6534,5865.4952
31.6704,5810.0991
31.6874,5835.3983
31.7044,5695.5311
31.7214,5909.4007
31.7384,5769.9622
31.7554,5835.8012
31.7724,5801.7993
31.7894,5898.3127
31.8064,5661.2576
31.8234,5869.1749
31.8404,5887.6701
31.8574,5765.2056
31.8744,5895.435
31.8914,5760.3348
31.9084,5935.6984
31.9254,5848.2986
31.9424,5785.3244
31.9594,5777.8004
31.9764,5801.471
31.9934,5818.217
32.0104,5879.8002
32.0274,5970.764
32.0444,5984.1861
32.0614,5873.5168
32.0784,5779.1034
32.0954,5752.7512
32.1124,5823.2734
32.1294,5836.7769
32.1464,5853.1233
32.1634,5892.9558
32.1804,5804.7746
32.1974,5847.6866
32.2144,5857.32
32.2314,5900.607
32.2484,5868.7706
32.2654,5810.4283
32.2824,5782.2267
32.2994,5847.9686
32.3164,5876.848
32.3334,5911.3613
32.3504,5844.0868
32.3674,5818.8757
32.3844,5777.8625
32.4014,5692.1677
32.4184,5791.8011
32.4354,5832.2119
32.4524,5811.5861
32.4694,5793.71
32.4864,5829.9519
32.5034,5728.3647
32.5204,5865.8278
32.5374,5806.7496
32.5544,5821.0745
32.5714,5812.0416
32.5884,5924.7435
32.6054,5835.9867
32.6224,5923.2596
32.6394,5842.6661
32.6564,5889.5096
32.6734,5712.6848
32.6904,5837.9265
32.7074,5850.6553
32.7244,5846.3053
32.7414,5957.031
32.7584,5951.5432
32.7754,5971.4854
32.7924,5839.9612
32.8094,5850.613
32.8264,5720.7228
32.8434,5953.7106
32.8604,5823.0843
32.8774,5878.6671
32.8944,5809.4362
32.9114,5849.2943
32.9284,5847.6585
32.9454,5905.4281
32.9624,5778.2661
32.9794,5736.726
32.9964,5879.3981
33.0134,5884.7818
33.0304,5910.476
33.0474,5777.6201
33.0644,5830.4612
33.0814,5856.0218
33.0984,5813.1195
33.1154,5721.9729
33.1324,5848.2097
33.1494,5891.2909
33.1664,5914.8983
33.1834,5845.5746
33.2004,5755.3339
33.2174,5845.8462
33.2344,5896.9831
33.2514,5853.9339
33.2684,5924.6941
33.2854,5999.5677
33.3024,5983.3787
33.3194,5925.0175
33.3364,5918.0913
33.3534,5829.4934
33.3704,5785.5293
33.3874,5820.1322
33.4044,5850.6726
33.4214,5818.7568
33.4384,5855.335
33.4554,5864.3358
33.4724,5925.175
33.4894,5977.9312
33.5064,5886.8562
33.5234,5966.4495
33.5404,6079.7809
33.5574,5998.2438
33.5744,6036.3039
33.5914,5945.5443
33.6084,6053.8243
33.6254,5998.223
33.6424,6238.1396
33.6594,6190.985
33.6764,5962.3273
33.6934,6025.0317
33.7104,6042.3319
33.7274,6248.5833
33.7444,6117.9123
33.7614,6096.3584
33.7784,6324.8213
33.7954,6162.8299
33.8124,6150.707
33.8294,6206.0658
33.8464,6190.4552
33.8634,6257.7403
33.8804,6431.8247
33.8974,6316.3954
33.9144,6474.5032
33.9314,6352.5788
33.9484,6410.1204
33.9654,6394.486
33.9824,6488.0919
33.9994,6438.6842
34.0164,6424.7292
34.0334,6473.3582
34.0504,6405.0698
34.0674,6389.4493
34.0844,6356.7284
34.1014,6431.0
34.1184,6400.3615
34.1354,6306.6603
34.1524,6285.4982
34.1694,6358.4916
34.1864,6380.5148
34.2034,6342.8067
34.2204,6282.8756
34.2374,6254.1719
34.2544,6235.7279
34.2714,6226.9277
34.2884,6152.4454
34.3054,6148.9754
34.3224,6147.0195
34.3394,6162.3819
34.3564,6105.8052
34.3734,6025.0163
34.3904,5993.5783
34.4074,6067.7075
34.4244,6058.0232
34.4414,6020.313
34.4584,6018.372
34.4754,6023.9228
34.4924,6078.5991
34.5094,6056.2068
34.5264,6035.7144
34.5434,6052.5368
34.5604,5904.019
34.5774,5917.0639
34.5944,5915.1644
34.6114,5895.1704
34.6284,5969.2881
34.6454,5946.0826
34.6624,5801.6434
34.6794,5889.7178
34.6964,5809.069
34.7134,5889.8985
34.7304,5867.0898
34.7474,5973.767
34.7644,5919.1723
34.7814,5903.1426
34.7984,5911.4549
34.8154,5865.3179
34.8324,5890.4052
34.8494,5880.166
34.8664,5861.9122
34.8834,5872.7502
34.9004,5826.4056
34.9174,5852.0239
34.9344,5950.8024
34.9514,5809.3092
34.9684,5828.893
34.9854,5819.4046
35.0024,5650.6999
35.0194,5802.2034
35.0364,5757.6001
35.0534,5815.8721
35.0704,5779.8111
35.0874,5684.2424
35.1044,5692.0875
35.1214,5745.6402
35.1384,5721.9978
35.1554,5745.5206
35.1724,5821.0645
35.1894,5767.4071
35.2064,5763.6799
35.2234,5813.1964
35.2404,5795.1934
35.2574,5798.36
35.2744,5772.1633
35.2914,5675.654
35.3084,5703.0346
35.3254,5798.3711
35.3424,5864.5585
35.3594,5828.6356
35.3764,5790.0
35.3934,5791.9087
35.4104,5794.3071
35.4274,5756.0933
35.4444,5779.6611
35.4614,5758.0891
35.4784,5711.3719
35.4954,5730.3365
35.5124,5745.5432
35.5294,5798.8895
35.5464,5823.501
35.5634,5939.2636
35.5804,5717.2827
35.5974,5708.0226
35.6144,5745.2692
35.6314,5729.8029
35.6484,5698.3468
35.6654,5833.7291
35.6824,5765.1627
35.6994,5719.2156
35.7164,5829.8494
35.7334,5757.4194
35.7504,5849.9135
35.7674,5867.4341
35.7844,5649.6701
35.8014,5575.6888
35.8184,5966.2256
35.8354,5786.2049
35.8524,5858.4854
35.8694,5710.7576
35.8864,5643.7919
35.9034,5776.0249
35.9204,5711.0162
35.9374,5671.491
35.9544,5614.9077
35.9714,5680.7374
35.9884,5735.0718
36.0054,5636.3135
36.0224,5699.764
36.0394,5660.6767
36.0564,5755.8062
36.0734,5719.3812
36.0904,5701.9379
36.1074,5711.5719
36.1244,5759.5203
36.1414,5765.4091
36.1584,5735.1111
36.1754,5633.9314
36.1924,5628.3109
36.2094,5664.2788
36.2264,5747.4938
36.2434,5742.4829
36.2604,5709.5967
36.2774,5703.1067
36.2944,5764.8338
36.3114,5789.199
36.3284,5681.9638
36.3454,5734.2302
36.3624,5828.5694
36.3794,5836.4247
36.3964,5680.2052
36.4134,5631.2808
36.4304,5708.1166
36.4474,5707.7015
36.4644,5760.5019
36.4814,5732.3168
36.4984,5768.6693
36.5154,5682.7158
36.5324,5643.4738
36.5494,5655.6003
36.5664,5724.444
36.5834,5750.6852
36.6004,5650.3077
36.6174,5717.6227
36.6344,5811.5715
36.6514,5688.3549
36.6684,5731.9243
36.6854,5741.6961
36.7024,5767.1323
36.7194,5741.4346
36.7364,5767.0213
36.7534,5782.8033
36.7704,5670.6816
36.7874,5794.2432
36.8044,5739.3063
36.8214,5660.0593
36.8384,5635.4611
36.8554,5779.4195
36.8724,5809.7155
36.8894,5810.8437
36.9064,5653.4416
36.9234,5782.4422
36.9404,5782.1956
36.9574,5705.6788
36.9744,5639.8891
36.9914,5681.9398
37.0084,5757.0055
37.0254,5733.949
37.0424,5773.7788
37.0594,5801.5233
37.0764,5750.181
37.0934,5810.1675
37.1104,5745.202
37.1274,5708.0954
37.1444,5652.1972
37.1614,5617.2488
37.1784,5727.976
37.1954,5608.4796
37.2124,5585.1681
37.2294,5724.2635
37.2464,5776.7659
37.2634,5770.4632
37.2804,5720.1341
37.2974,5674.8579
37.3144,5650.9869
37.3314,5660.63
37.3484,5716.5065
37.3654,5707.6964
37.3824,5662.6907
37.3994,5713.8009
37.4164,5655.695
37.4334,5838.8032
37.4504,5703.9521
37.4674,5714.9914
37.4844,5696.9864
37.5014,5712.147
37.5184,5699.5093
37.5354,5664.7237
37.5524,5697.8644
37.5694,5626.3082
37.5864,5713.2124
37.6034,5686.6476
37.6204,5820.4408
37.6374,5736.0583
37.6544,5808.2731
37.6714,5713.1462
37.6884,5662.4697
37.7054,5677.7621
37.7224,5801.9606
37.7394,5789.671
37.7564,5775.6271
37.7734,5813.0316
37.7904,5743.7693
37.8074,5731.4972
37.8244,5756.1981
37.8414,5687.1187
37.8584,5821.991
37.8754,5722.5508
37.8924,5669.7681
37.9094,5773.2665
37.9264,5728.9949
37.9434,5690.8368
37.9604,5699.2898
37.9774,5656.0996
37.9944,5695.5671
38.0114,5753.7847
38.0284,5743.8849
38.0454,5857.0586
38.0624,5851.0465
38.0794,5835.2357
38.0964,5757.5336
38.1134,5727.1451
38.1304,5708.5101
38.1474,5791.9111
38.1644,5883.4627
38.1814,5920.1346
38.1984,5857.859
38.2154,5866.5376
38.2324,5798.64
38.2494,5775.3836
38.2664,5810.2819
38.2834,5809.7005
38.3004,5855.3124
38.3174,5750.0478
38.3344,5725.2728
38.3514,5781.0597
38.3684,5841.1884
38.3854,5910.3665
38.4024,5834.0911
38.4194,5773.92
38.4364,5728.366
38.4534,5792.3533
38.4704,5948.0314
38.4874,5871.6642
38.5044,5765.579
38.5214,5836.6866
38.5384,5833.6869
38.5554,5795.8544
38.5724,5783.0627
38.5894,5691.7868
38.6064,5800.8305
38.6234,5734.0472
38.6404,5821.5639
38.6574,5892.8416
38.6744,5850.3709
38.6914,5815.4043
38.7084,5858.2424
38.7254,5899.7591
38.7424,5761.9971
38.7594,5810.6294
38.7764,5812.4329
38.7934,5722.1523
38.8104,5888.9793
38.8274,5941.9575
38.8444,5903.2295
38.8614,5858.4671
38.8784,5946.4597
38.8954,5868.1694
38.9124,5822.3573
38.9294,5863.6406
38.9464,5817.6364
38.9634,5961.8677
38.9804,5911.728
