2Theta Intensity
20.0084	6936.00
20.0254	6932.00
20.0424	6927.00
20.0594	6923.00
20.0764	6919.00
20.0934	6915.00
20.1104	6910.00
20.1274	6906.00
20.1444	6902.00
20.1614	6897.00
20.1784	6893.00
20.1954	6889.00
20.2124	6885.00
20.2294	6880.00
20.2464	6876.00
20.2634	6872.00
20.2804	6868.00
20.2974	6864.00
20.3144	6859.00
20.3314	6855.00
20.3484	6851.00
20.3654	6847.00
20.3824	6843.00
20.3994	6839.00
20.4164	6835.00
20.4334	6830.00
20.4504	6826.00
20.4674	6822.00
20.4844	6818.00
20.5014	6814.00
20.5184	6810.00
20.5354	6806.00
20.5524	6802.00
20.5694	6798.00
20.5864	6794.00
20.6034	6790.00
20.6204	6786.00
20.6374	6782.00
20.6544	6778.00
20.6714	6774.00
20.6884	6770.00
20.7054	6766.00
20.7224	6762.00
20.7394	6758.00
20.7564	6754.00
20.7734	6750.00
20.7904	6746.00
20.8074	6742.00
20.8244	6739.00
20.8414	6735.00
20.8584	6731.00
20.8754	6727.00
20.8924	6723.00
20.9094	6719.00
20.9264	6716.00
20.9434	6712.00
20.9604	6708.00
20.9774	6704.00
20.9944	6700.00
21.0114	6697.00
21.0284	6693.00
21.0454	6689.00
21.0624	6686.00
21.0794	6682.00
21.0964	6678.00
21.1134	6675.00
21.1304	6671.00
21.1474	6667.00
21.1644	6664.00
21.1814	6660.00
21.1984	6656.00
21.2154	6653.00
21.2324	6649.00
21.2494	6646.00
21.2664	6642.00
21.2834	6639.00
21.3004	6635.00
21.3174	6632.00
21.3344	6628.00
21.3514	6625.00
21.3684	6621.00
21.3854	6618.00
21.4024	6614.00
21.4194	6611.00
21.4364	6608.00
21.4534	6604.00
21.4704	6601.00
21.4874	6598.00
21.5044	6594.00
21.5214	6591.00
21.5384	6588.00
21.5554	6585.00
21.5724	6581.00
21.5894	6578.00
21.6064	6575.00
21.6234	6572.00
21.6404	6569.00
21.6574	6566.00
21.6744	6563.00
21.6914	6560.00
21.7084	6557.00
21.7254	6554.00
21.7424	6551.00
21.7594	6548.00
21.7764	6545.00
21.7934	6542.00
21.8104	6539.00
21.8274	6536.00
21.8444	6534.00
21.8614	6531.00
21.8784	6528.00
21.8954	6525.00
21.9124	6523.00
21.9294	6520.00
21.9464	6518.00
21.9634	6515.00
21.9804	6513.00
21.9974	6510.00
22.0144	6508.00
22.0314	6506.00
22.0484	6503.00
22.0654	6501.00
22.0824	6499.00
22.0994	6497.00
22.1164	6495.00
22.1334	6493.00
22.1504	6491.00
22.1674	6489.00
22.1844	6487.00
22.2014	6486.00
22.2184	6484.00
22.2354	6483.00
22.2524	6481.00
22.2694	6480.00
22.2864	6479.00
22.3034	6478.00
22.3204	6477.00
22.3374	6476.00
22.3544	6476.00
22.3714	6475.00
22.3884	6475.00
22.4054	6475.00
22.4224	6476.00
22.4394	6476.00
22.4564	6477.00
22.4734	6478.00
22.4904	6480.00
22.5074	6482.00
22.5244	6484.00
22.5414	6486.00
22.5584	6489.00
22.5754	6493.00
22.5924	6496.00
22.6094	6501.00
22.6264	6505.00
22.6434	6510.00
22.6604	6515.00
22.6774	6521.00
22.6944	6527.00
22.7114	6533.00
22.7284	6540.00
22.7454	6547.00
22.7624	6554.00
22.7794	6561.00
22.7964	6569.00
22.8134	6577.00
22.8304	6585.00
22.8474	6593.00
22.8644	6602.00
22.8814	6612.00
22.8984	6622.00
22.9154	6634.00
22.9324	6647.00
22.9494	6662.00
22.9664	6679.00
22.9834	6699.00
23.0004	6722.00
23.0174	6748.00
23.0344	6778.00
23.0514	6812.00
23.0684	6851.00
23.0854	6895.00
23.1024	6945.00
23.1194	7000.00
23.1364	7062.00
23.1534	7131.00
23.1704	7207.00
23.1874	7291.00
23.2044	7382.00
23.2214	7481.00
23.2384	7588.00
23.2554	7703.00
23.2724	7826.00
23.2894	7956.00
23.3064	8093.00
23.3234	8237.00
23.3404	8386.00
23.3574	8540.00
23.3744	8698.00
23.3914	8857.00
23.4084	9018.00
23.4254	9176.00
23.4424	9331.00
23.4594	9479.00
23.4764	9617.00
23.4934	9744.00
23.5104	9855.00
23.5274	9948.00
23.5444	10020.00
23.5614	10069.00
23.5784	10094.00
23.5954	10097.00
23.6124	10077.00
23.6294	10036.00
23.6464	9976.00
23.6634	9897.00
23.6804	9803.00
23.6974	9695.00
23.7144	9575.00
23.7314	9445.00
23.7484	9308.00
23.7654	9165.00
23.7824	9018.00
23.7994	8869.00
23.8164	8720.00
23.8334	8572.00
23.8504	8425.00
23.8674	8282.00
23.8844	8142.00
23.9014	8006.00
23.9184	7876.00
23.9354	7751.00
23.9524	7631.00
23.9694	7518.00
23.9864	7411.00
24.0034	7310.00
24.0204	7215.00
24.0374	7126.00
24.0544	7043.00
24.0714	6966.00
24.0884	6895.00
24.1054	6829.00
24.1224	6768.00
24.1394	6712.00
24.1564	6660.00
24.1734	6613.00
24.1904	6569.00
24.2074	6530.00
24.2244	6493.00
24.2414	6460.00
24.2584	6430.00
24.2754	6402.00
24.2924	6376.00
24.3094	6353.00
24.3264	6331.00
24.3434	6311.00
24.3604	6293.00
24.3774	6276.00
24.3944	6260.00
24.4114	6245.00
24.4284	6231.00
24.4454	6218.00
24.4624	6206.00
24.4794	6195.00
24.4964	6184.00
24.5134	6173.00
24.5304	6164.00
24.5474	6154.00
24.5644	6145.00
24.5814	6136.00
24.5984	6128.00
24.6154	6120.00
24.6324	6112.00
24.6494	6105.00
24.6664	6097.00
24.6834	6090.00
24.7004	6083.00
24.7174	6077.00
24.7344	6070.00
24.7514	6064.00
24.7684	6058.00
24.7854	6052.00
24.8024	6046.00
24.8194	6040.00
24.8364	6034.00
24.8534	6029.00
24.8704	6023.00
24.8874	6018.00
24.9044	6012.00
24.9214	6007.00
24.9384	6002.00
24.9554	5997.00
24.9724	5992.00
24.9894	5987.00
25.0064	5983.00
25.0234	5978.00
25.0404	5973.00
25.0574	5969.00
25.0744	5964.00
25.0914	5960.00
25.1084	5956.00
25.1254	5951.00
25.1424	5947.00
25.1594	5943.00
25.1764	5939.00
25.1934	5935.00
25.2104	5931.00
25.2274	5927.00
25.2444	5923.00
25.2614	5919.00
25.2784	5915.00
25.2954	5911.00
25.3124	5908.00
25.3294	5904.00
25.3464	5900.00
25.3634	5897.00
25.3804	5893.00
25.3974	5889.00
25.4144	5886.00
25.4314	5882.00
25.4484	5879.00
25.4654	5875.00
25.4824	5872.00
25.4994	5868.00
25.5164	5865.00
25.5334	5862.00
25.5504	5858.00
25.5674	5855.00
25.5844	5852.00
25.6014	5848.00
25.6184	5845.00
25.6354	5842.00
25.6524	5839.00
25.6694	5836.00
25.6864	5832.00
25.7034	5829.00
25.7204	5826.00
25.7374	5823.00
25.7544	5820.00
25.7714	5817.00
25.7884	5814.00
25.8054	5811.00
25.8224	5808.00
25.8394	5805.00
25.8564	5802.00
25.8734	5799.00
25.8904	5796.00
25.9074	5793.00
25.9244	5790.00
25.9414	5787.00
25.9584	5784.00
25.9754	5782.00
25.9924	5779.00
26.0094	5776.00
26.0264	5773.00
26.0434	5770.00
26.0604	5767.00
26.0774	5765.00
26.0944	5762.00
26.1114	5759.00
26.1284	5756.00
26.1454	5754.00
26.1624	5751.00
26.1794	5748.00
26.1964	5745.00
26.2134	5743.00
26.2304	5740.00
26.2474	5737.00
26.2644	5735.00
26.2814	5732.00
26.2984	5729.00
26.3154	5727.00
26.3324	5724.00
26.3494	5722.00
26.3664	5719.00
26.3834	5716.00
26.4004	5714.00
26.4174	5711.00
26.4344	5709.00
26.4514	5706.00
26.4684	5704.00
26.4854	5701.00
26.5024	5699.00
26.5194	5696.00
26.5364	5694.00
26.5534	5691.00
26.5704	5689.00
26.5874	5686.00
26.6044	5684.00
26.6214	5681.00
26.6384	5679.00
26.6554	5676.00
26.6724	5674.00
26.6894	5671.00
26.7064	5669.00
26.7234	5667.00
26.7404	5664.00
26.7574	5662.00
26.7744	5659.00
26.7914	5657.00
26.8084	5655.00
26.8254	5653.00
26.8424	5650.00
26.8594	5648.00
26.8764	5646.00
26.8934	5643.00
26.9104	5641.00
26.9274	5639.00
26.9444	5636.00
26.9614	5634.00
26.9784	5632.00
26.9954	5630.00
27.0124	5627.00
27.0294	5625.00
27.0464	5623.00
27.0634	5620.00
27.0804	5618.00
27.0974	5616.00
27.1144	5614.00
27.1314	5611.00
27.1484	5609.00
27.1654	5607.00
27.1824	5605.00
27.1994	5603.00
27.2164	5600.00
27.2334	5598.00
27.2504	5596.00
27.2674	5594.00
27.2844	5592.00
27.3014	5589.00
27.3184	5587.00
27.3354	5585.00
27.3524	5583.00
27.3694	5581.00
27.3864	5579.00
27.4034	5576.00
27.4204	5574.00
27.4374	5572.00
27.4544	5570.00
27.4714	5568.00
27.4884	5566.00
27.5054	5564.00
27.5224	5562.00
27.5394	5560.00
27.5564	5558.00
27.5734	5555.00
27.5904	5553.00
27.6074	5551.00
27.6244	5549.00
27.6414	5547.00
27.6584	5545.00
27.6754	5543.00
27.6924	5541.00
27.7094	5539.00
27.7264	5537.00
27.7434	5535.00
27.7604	5533.00
27.7774	5532.00
27.7944	5530.00
27.8114	5528.00
27.8284	5526.00
27.8454	5524.00
27.8624	5522.00
27.8794	5520.00
27.8964	5518.00
27.9134	5516.00
27.9304	5514.00
27.9474	5512.00
27.9644	5510.00
27.9814	5508.00
27.9984	5507.00
28.0154	5505.00
28.0324	5503.00
28.0494	5501.00
28.0664	5499.00
28.0834	5497.00
28.1004	5496.00
28.1174	5494.00
28.1344	5492.00
28.1514	5490.00
28.1684	5489.00
28.1854	5487.00
28.2024	5485.00
28.2194	5483.00
28.2364	5482.00
28.2534	5480.00
28.2704	5478.00
28.2874	5477.00
28.3044	5475.00
28.3214	5474.00
28.3384	5472.00
28.3554	5471.00
28.3724	5469.00
28.3894	5468.00
28.4064	5467.00
28.4234	5466.00
28.4404	5464.00
28.4574	5463.00
28.4744	5462.00
28.4914	5462.00
28.5084	5461.00
28.5254	5461.00
28.5424	5460.00
28.5594	5460.00
28.5764	5460.00
28.5934	5461.00
28.6104	5462.00
28.6274	5463.00
28.6444	5464.00
28.6614	5466.00
28.6784	5468.00
28.6954	5471.00
28.7124	5474.00
28.7294	5478.00
28.7464	5482.00
28.7634	5486.00
28.7804	5491.00
28.7974	5496.00
28.8144	5502.00
28.8314	5507.00
28.8484	5513.00
28.8654	5519.00
28.8824	5525.00
28.8994	5531.00
28.9164	5536.00
28.9334	5541.00
28.9504	5544.00
28.9674	5547.00
28.9844	5549.00
29.0014	5549.00
29.0184	5548.00
29.0354	5545.00
29.0524	5541.00
29.0694	5536.00
29.0864	5530.00
29.1034	5523.00
29.1204	5515.00
29.1374	5506.00
29.1544	5497.00
29.1714	5488.00
29.1884	5479.00
29.2054	5470.00
29.2224	5461.00
29.2394	5452.00
29.2564	5443.00
29.2734	5435.00
29.2904	5427.00
29.3074	5420.00
29.3244	5413.00
29.3414	5406.00
29.3584	5400.00
29.3754	5394.00
29.3924	5389.00
29.4094	5384.00
29.4264	5380.00
29.4434	5375.00
29.4604	5372.00
29.4774	5368.00
29.4944	5365.00
29.5114	5361.00
29.5284	5358.00
29.5454	5356.00
29.5624	5353.00
29.5794	5350.00
29.5964	5348.00
29.6134	5346.00
29.6304	5340.00
29.6474	5338.00
29.6644	5336.00
29.6814	5334.00
29.6984	5330.00
29.7154	5329.00
29.7324	5327.00
29.7494	5325.00
29.7664	5323.00
29.7834	5321.00
29.8004	5319.00
29.8174	5318.00
29.8344	5316.00
29.8514	5314.00
29.8684	5313.00
29.8854	5311.00
29.9024	5309.00
29.9194	5308.00
29.9364	5306.00
29.9534	5304.00
29.9704	5303.00
29.9874	5301.00
30.0044	5300.00
30.0214	5298.00
30.0384	5296.00
30.0554	5295.00
30.0724	5293.00
30.0894	5292.00
30.1064	5290.00
30.1234	5289.00
30.1404	5287.00
30.1574	5286.00
30.1744	5284.00
30.1914	5283.00
30.2084	5281.00
30.2254	5280.00
30.2424	5278.00
30.2594	5277.00
30.2764	5275.00
30.2934	5274.00
30.3104	5273.00
30.3274	5271.00
30.3444	5270.00
30.3614	5268.00
30.3784	5267.00
30.3954	5265.00
30.4124	5264.00
30.4294	5263.00
30.4464	5261.00
30.4634	5260.00
30.4804	5259.00
30.4974	5257.00
30.5144	5256.00
30.5314	5254.00
30.5484	5253.00
30.5654	5252.00
30.5824	5250.00
30.5994	5249.00
30.6164	5248.00
30.6334	5246.00
30.6504	5245.00
30.6674	5244.00
30.6844	5242.00
30.7014	5241.00
30.7184	5240.00
30.7354	5239.00
30.7524	5237.00
30.7694	5236.00
30.7864	5235.00
30.8034	5233.00
30.8204	5232.00
30.8374	5231.00
30.8544	5230.00
30.8714	5228.00
30.8884	5227.00
30.9054	5226.00
30.9224	5225.00
30.9394	5223.00
30.9564	5222.00
30.9734	5221.00
30.9904	5220.00
31.0074	5219.00
31.0244	5218.00
31.0414	5216.00
31.0584	5215.00
31.0754	5214.00
31.0924	5213.00
31.1094	5212.00
31.1264	5211.00
31.1434	5210.00
31.1604	5209.00
31.1774	5208.00
31.1944	5207.00
31.2114	5206.00
31.2284	5205.00
31.2454	5204.00
31.2624	5203.00
31.2794	5202.00
31.2964	5201.00
31.3134	5200.00
31.3304	5199.00
31.3474	5198.00
31.3644	5197.00
31.3814	5196.00
31.3984	5195.00
31.4154	5194.00
31.4324	5193.00
31.4494	5192.00
31.4664	5191.00
31.4834	5190.00
31.5004	5189.00
31.5174	5188.00
31.5344	5187.00
31.5514	5186.00
31.5684	5185.00
31.5854	5183.00
31.6024	5182.00
31.6194	5181.00
31.6364	5180.00
31.6534	5179.00
31.6704	5178.00
31.6874	5177.00
31.7044	5176.00
31.7214	5175.00
31.7384	5174.00
31.7554	5173.00
31.7724	5172.00
31.7894	5171.00
31.8064	5170.00
31.8234	5169.00
31.8404	5168.00
31.8574	5167.00
31.8744	5166.00
31.8914	5165.00
31.9084	5165.00
31.9254	5164.00
31.9424	5163.00
31.9594	5162.00
31.9764	5162.00
31.9934	5161.00
32.0104	5160.00
32.0274	5160.00
32.0444	5159.00
32.0614	5158.00
32.0784	5158.00
32.0954	5157.00
32.1124	5157.00
32.1294	5156.00
32.1464	5156.00
32.1634	5156.00
32.1804	5155.00
32.1974	5155.00
32.2144	5155.00
32.2314	5154.00
32.2484	5154.00
32.2654	5154.00
32.2824	5154.00
32.2994	5154.00
32.3164	5154.00
32.3334	5155.00
32.3504	5155.00
32.3674	5156.00
32.3844	5156.00
32.4014	5157.00
32.4184	5158.00
32.4354	5159.00
32.4524	5160.00
32.4694	5162.00
32.4864	5164.00
32.5034	5166.00
32.5204	5168.00
32.5374	5171.00
32.5544	5174.00
32.5714	5177.00
32.5884	5181.00
32.6054	5185.00
32.6224	5190.00
32.6394	5195.00
32.6564	5201.00
32.6734	5207.00
32.6904	5214.00
32.7074	5222.00
32.7244	5230.00
32.7414	5239.00
32.7584	5249.00
32.7754	5259.00
32.7924	5270.00
32.8094	5282.00
32.8264	5294.00
32.8434	5307.00
32.8604	5320.00
32.8774	5334.00
32.8944	5349.00
32.9114	5364.00
32.9284	5380.00
32.9454	5396.00
32.9624	5412.00
32.9794	5428.00
32.9964	5444.00
33.0134	5460.00
33.0304	5475.00
33.0474	5490.00
33.0644	5505.00
33.0814	5518.00
33.0984	5530.00
33.1154	5540.00
33.1324	5549.00
33.1494	5556.00
33.1664	5562.00
33.1834	5565.00
33.2004	5566.00
33.2174	5566.00
33.2344	5563.00
33.2514	5559.00
33.2684	5554.00
33.2854	5546.00
33.3024	5538.00
33.3194	5528.00
33.3364	5517.00
33.3534	5506.00
33.3704	5493.00
33.3874	5480.00
33.4044	5467.00
33.4214	5453.00
33.4384	5440.00
33.4554	5426.00
33.4724	5412.00
33.4894	5398.00
33.5064	5385.00
33.5234	5372.00
33.5404	5359.00
33.5574	5347.00
33.5744	5336.00
33.5914	5325.00
33.6084	5315.00
33.6254	5306.00
33.6424	5297.00
33.6594	5289.00
33.6764	5282.00
33.6934	5276.00
33.7104	5270.00
33.7274	5266.00
33.7444	5262.00
33.7614	5259.00
33.7784	5257.00
33.7954	5255.00
33.8124	5254.00
33.8294	5254.00
33.8464	5255.00
33.8634	5257.00
33.8804	5259.00
33.8974	5261.00
33.9144	5264.00
33.9314	5268.00
33.9484	5272.00
33.9654	5276.00
33.9824	5280.00
33.9994	5284.00
34.0164	5288.00
34.0334	5293.00
34.0504	5296.00
34.0674	5300.00
34.0844	5303.00
34.1014	5305.00
34.1184	5306.00
34.1354	5307.00
34.1524	5307.00
34.1694	5306.00
34.1864	5304.00
34.2034	5301.00
34.2204	5297.00
34.2374	5293.00
34.2544	5288.00
34.2714	5282.00
34.2884	5276.00
34.3054	5269.00
34.3224	5262.00
34.3394	5254.00
34.3564	5246.00
34.3734	5238.00
34.3904	5229.00
34.4074	5221.00
34.4244	5212.00
34.4414	5203.00
34.4584	5195.00
34.4754	5186.00
34.4924	5177.00
34.5094	5169.00
34.5264	5161.00
34.5434	5153.00
34.5604	5145.00
34.5774	5137.00
34.5944	5130.00
34.6114	5123.00
34.6284	5116.00
34.6454	5109.00
34.6624	5103.00
34.6794	5097.00
34.6964	5091.00
34.7134	5085.00
34.7304	5080.00
34.7474	5075.00
34.7644	5070.00
34.7814	5066.00
34.7984	5061.00
34.8154	5057.00
34.8324	5053.00
34.8494	5050.00
34.8664	5046.00
34.8834	5043.00
34.9004	5040.00
34.9174	5037.00
34.9344	5034.00
34.9514	5032.00
34.9684	5029.00
34.9854	5027.00
35.0024	5025.00
35.0194	5023.00
35.0364	5021.00
35.0534	5019.00
35.0704	5017.00
35.0874	5015.00
35.1044	5014.00
35.1214	5012.00
35.1384	5011.00
35.1554	5009.00
35.1724	5008.00
35.1894	5007.00
35.2064	5005.00
35.2234	5004.00
35.2404	5003.00
35.2574	5002.00
35.2744	5001.00
35.2914	5000.00
35.3084	4999.00
35.3254	4998.00
35.3424	4998.00
35.3594	4997.00
35.3764	4996.00
35.3934	4995.00
35.4104	4995.00
35.4274	4994.00
35.4444	4994.00
35.4614	4993.00
35.4784	4993.00
35.4954	4992.00
35.5124	4992.00
35.5294	4992.00
35.5464	4991.00
35.5634	4991.00
35.5804	4991.00
35.5974	4990.00
35.6144	4990.00
35.6314	4989.00
35.6484	4989.00
35.6654	4988.00
35.6824	4987.00
35.6994	4986.00
35.7164	4986.00
35.7334	4985.00
35.7504	4984.00
35.7674	4983.00
35.7844	4982.00
35.8014	4980.00
35.8184	4979.00
35.8354	4978.00
35.8524	4977.00
35.8694	4976.00
35.8864	4974.00
35.9034	4973.00
35.9204	4972.00
35.9374	4971.00
35.9544	4970.00
35.9714	4969.00
35.9884	4968.00
36.0054	4967.00
36.0224	4966.00
36.0394	4965.00
36.0564	4964.00
36.0734	4963.00
36.0904	4962.00
36.1074	4961.00
36.1244	4961.00
36.1414	4960.00
36.1584	4959.00
36.1754	4958.00
36.1924	4958.00
36.2094	4957.00
36.2264	4956.00
36.2434	4956.00
36.2604	4955.00
36.2774	4955.00
36.2944	4954.00
36.3114	4953.00
36.3284	4953.00
36.3454	4952.00
36.3624	4952.00
36.3794	4951.00
36.3964	4950.00
36.4134	4950.00
36.4304	4949.00
36.4474	4949.00
36.4644	4948.00
36.4814	4948.00
36.4984	4947.00
36.5154	4947.00
36.5324	4946.00
36.5494	4945.00
36.5664	4945.00
36.5834	4944.00
36.6004	4944.00
36.6174	4943.00
36.6344	4943.00
36.6514	4942.00
36.6684	4942.00
36.6854	4941.00
36.7024	4941.00
36.7194	4940.00
36.7364	4940.00
36.7534	4939.00
36.7704	4939.00
36.7874	4939.00
36.8044	4938.00
36.8214	4938.00
36.8384	4937.00
36.8554	4937.00
36.8724	4936.00
36.8894	4936.00
36.9064	4935.00
36.9234	4935.00
36.9404	4935.00
36.9574	4934.00
36.9744	4934.00
36.9914	4933.00
37.0084	4933.00
37.0254	4932.00
37.0424	4932.00
37.0594	4932.00
37.0764	4931.00
37.0934	4931.00
37.1104	4930.00
37.1274	4930.00
37.1444	4930.00
37.1614	4929.00
37.1784	4929.00
37.1954	4928.00
37.2124	4928.00
37.2294	4928.00
37.2464	4927.00
37.2634	4927.00
37.2804	4927.00
37.2974	4926.00
37.3144	4926.00
37.3314	4925.00
37.3484	4925.00
37.3654	4925.00
37.3824	4924.00
37.3994	4924.00
37.4164	4924.00
37.4334	4923.00
37.4504	4923.00
37.4674	4923.00
37.4844	4923.00
37.5014	4922.00
37.5184	4922.00
37.5354	4922.00
37.5524	4921.00
37.5694	4921.00
37.5864	4921.00
37.6034	4920.00
37.6204	4920.00
37.6374	4920.00
37.6544	4920.00
37.6714	4919.00
37.6884	4919.00
37.7054	4919.00
37.7224	4919.00
37.7394	4918.00
37.7564	4918.00
37.7734	4918.00
37.7904	4918.00
37.8074	4918.00
37.8244	4918.00
37.8414	4917.00
37.8584	4917.00
37.8754	4917.00
37.8924	4917.00
37.9094	4917.00
37.9264	4917.00
37.9434	4917.00
37.9604	4917.00
37.9774	4918.00
37.9944	4918.00
38.0114	4918.00
38.0284	4918.00
38.0454	4918.00
38.0624	4919.00
38.0794	4919.00
38.0964	4920.00
38.1134	4920.00
38.1304	4920.00
38.1474	4921.00
38.1644	4921.00
38.1814	4922.00
38.1984	4922.00
38.2154	4923.00
38.2324	4923.00
38.2494	4924.00
38.2664	4924.00
38.2834	4924.00
38.3004	4924.00
38.3174	4924.00
38.3344	4924.00
38.3514	4924.00
38.3684	4923.00
38.3854	4923.00
38.4024	4923.00
38.4194	4922.00
38.4364	4921.00
38.4534	4921.00
38.4704	4920.00
38.4874	4920.00
38.5044	4919.00
38.5214	4919.00
38.5384	4918.00
38.5554	4918.00
38.5724	4917.00
38.5894	4917.00
38.6064	4916.00
38.6234	4916.00
38.6404	4916.00
38.6574	4916.00
38.6744	4916.00
38.6914	4916.00
38.7084	4916.00
38.7254	4916.00
38.7424	4916.00
38.7594	4917.00
38.7764	4917.00
38.7934	4918.00
38.8104	4918.00
38.8274	4919.00
38.8444	4920.00
38.8614	4921.00
38.8784	4922.00
38.8954	4923.00
38.9124	4924.00
38.9294	4926.00
38.9464	4927.00
38.9634	4929.00
38.9804	4930.00
38.9974	4932.00
39.0144	4934.00
39.0314	4937.00
39.0484	4939.00
39.0654	4941.00
39.0824	4944.00
39.0994	4946.00
39.1164	4949.00
39.1334	4952.00
39.1504	4955.00
39.1674	4958.00
39.1844	4961.00
39.2014	4964.00
39.2184	4968.00
39.2354	4971.00
39.2524	4975.00
39.2694	4979.00
39.2864	4983.00
39.3034	4988.00
39.3204	4993.00
39.3374	4998.00
39.3544	5004.00
39.3714	5010.00
39.3884	5016.00
39.4054	5023.00
39.4224	5030.00
39.4394	5038.00
39.4564	5046.00
39.4734	5055.00
39.4904	5064.00
39.5074	5074.00
39.5244	5083.00
39.5414	5094.00
39.5584	5104.00
39.5754	5115.00
39.5924	5126.00
39.6094	5137.00
39.6264	5148.00
39.6434	5159.00
39.6604	5171.00
39.6774	5181.00
39.6944	5192.00
39.7114	5202.00
39.7284	5212.00
39.7454	5221.00
39.7624	5229.00
39.7794	5236.00
39.7964	5242.00
39.8134	5248.00
39.8304	5251.00
39.8474	5254.00
39.8644	5256.00
39.8814	5256.00
39.8984	5256.00
39.9154	5254.00
39.9324	5252.00
39.9494	5248.00
39.9664	5243.00
