2Theta Intensity
20.0084	6925.00
20.0254	6920.00
20.0424	6916.00
20.0594	6911.00
20.0764	6907.00
20.0934	6903.00
20.1104	6898.00
20.1274	6894.00
20.1444	6889.00
20.1614	6885.00
20.1784	6881.00
20.1954	6876.00
20.2124	6872.00
20.2294	6868.00
20.2464	6863.00
20.2634	6859.00
20.2804	6855.00
20.2974	6850.00
20.3144	6846.00
20.3314	6842.00
20.3484	6837.00
20.3654	6833.00
20.3824	6829.00
20.3994	6824.00
20.4164	6820.00
20.4334	6816.00
20.4504	6812.00
20.4674	6807.00
20.4844	6803.00
20.5014	6799.00
20.5184	6795.00
20.5354	6790.00
20.5524	6786.00
20.5694	6782.00
20.5864	6778.00
20.6034	6774.00
20.6204	6769.00
20.6374	6765.00
20.6544	6761.00
20.6714	6757.00
20.6884	6753.00
20.7054	6748.00
20.7224	6744.00
20.7394	6740.00
20.7564	6736.00
20.7734	6732.00
20.7904	6728.00
20.8074	6724.00
20.8244	6720.00
20.8414	6716.00
20.8584	6711.00
20.8754	6707.00
20.8924	6703.00
20.9094	6699.00
20.9264	6695.00
20.9434	6691.00
20.9604	6687.00
20.9774	6683.00
20.9944	6679.00
21.0114	6675.00
21.0284	6671.00
21.0454	6667.00
21.0624	6663.00
21.0794	6659.00
21.0964	6655.00
21.1134	6651.00
21.1304	6647.00
21.1474	6643.00
21.1644	6639.00
21.1814	6635.00
21.1984	6631.00
21.2154	6627.00
21.2324	6623.00
21.2494	6619.00
21.2664	6615.00
21.2834	6611.00
21.3004	6608.00
21.3174	6604.00
21.3344	6600.00
21.3514	6596.00
21.3684	6592.00
21.3854	6588.00
21.4024	6584.00
21.4194	6580.00
21.4364	6577.00
21.4534	6573.00
21.4704	6569.00
21.4874	6565.00
21.5044	6561.00
21.5214	6557.00
21.5384	6554.00
21.5554	6550.00
21.5724	6546.00
21.5894	6542.00
21.6064	6539.00
21.6234	6535.00
21.6404	6531.00
21.6574	6527.00
21.6744	6524.00
21.6914	6520.00
21.7084	6516.00
21.7254	6512.00
21.7424	6509.00
21.7594	6505.00
21.7764	6501.00
21.7934	6498.00
21.8104	6494.00
21.8274	6490.00
21.8444	6487.00
21.8614	6483.00
21.8784	6479.00
21.8954	6476.00
21.9124	6472.00
21.9294	6468.00
21.9464	6465.00
21.9634	6461.00
21.9804	6458.00
21.9974	6454.00
22.0144	6450.00
22.0314	6447.00
22.0484	6443.00
22.0654	6440.00
22.0824	6436.00
22.0994	6433.00
22.1164	6429.00
22.1334	6426.00
22.1504	6422.00
22.1674	6419.00
22.1844	6416.00
22.2014	6412.00
22.2184	6409.00
22.2354	6406.00
22.2524	6402.00
22.2694	6399.00
22.2864	6396.00
22.3034	6393.00
22.3204	6390.00
22.3374	6387.00
22.3544	6384.00
22.3714	6381.00
22.3884	6378.00
22.4054	6376.00
22.4224	6373.00
22.4394	6371.00
22.4564	6369.00
22.4734	6367.00
22.4904	6365.00
22.5074	6364.00
22.5244	6362.00
22.5414	6361.00
22.5584	6360.00
22.5754	6359.00
22.5924	6359.00
22.6094	6358.00
22.6264	6358.00
22.6434	6358.00
22.6604	6358.00
22.6774	6358.00
22.6944	6358.00
22.7114	6358.00
22.7284	6358.00
22.7454	6357.00
22.7624	6357.00
22.7794	6356.00
22.7964	6354.00
22.8134	6352.00
22.8304	6349.00
22.8474	6346.00
22.8644	6342.00
22.8814	6338.00
22.8984	6332.00
22.9154	6327.00
22.9324	6321.00
22.9494	6314.00
22.9664	6308.00
22.9834	6301.00
23.0004	6295.00
23.0174	6288.00
23.0344	6281.00
23.0514	6274.00
23.0684	6268.00
23.0854	6262.00
23.1024	6256.00
23.1194	6250.00
23.1364	6244.00
23.1534	6238.00
23.1704	6233.00
23.1874	6228.00
23.2044	6223.00
23.2214	6218.00
23.2384	6213.00
23.2554	6209.00
23.2724	6205.00
23.2894	6201.00
23.3064	6197.00
23.3234	6193.00
23.3404	6189.00
23.3574	6185.00
23.3744	6181.00
23.3914	6178.00
23.4084	6174.00
23.4254	6171.00
23.4424	6167.00
23.4594	6164.00
23.4764	6160.00
23.4934	6157.00
23.5104	6154.00
23.5274	6150.00
23.5444	6147.00
23.5614	6144.00
23.5784	6140.00
23.5954	6137.00
23.6124	6134.00
23.6294	6131.00
23.6464	6128.00
23.6634	6124.00
23.6804	6121.00
23.6974	6118.00
23.7144	6115.00
23.7314	6112.00
23.7484	6109.00
23.7654	6106.00
23.7824	6102.00
23.7994	6099.00
23.8164	6096.00
23.8334	6093.00
23.8504	6090.00
23.8674	6087.00
23.8844	6084.00
23.9014	6081.00
23.9184	6078.00
23.9354	6075.00
23.9524	6072.00
23.9694	6069.00
23.9864	6066.00
24.0034	6063.00
24.0204	6060.00
24.0374	6057.00
24.0544	6054.00
24.0714	6051.00
24.0884	6048.00
24.1054	6045.00
24.1224	6042.00
24.1394	6039.00
24.1564	6036.00
24.1734	6033.00
24.1904	6030.00
24.2074	6027.00
24.2244	6024.00
24.2414	6021.00
24.2584	6018.00
24.2754	6015.00
24.2924	6012.00
24.3094	6009.00
24.3264	6006.00
24.3434	6003.00
24.3604	6001.00
24.3774	5998.00
24.3944	5995.00
24.4114	5992.00
24.4284	5989.00
24.4454	5986.00
24.4624	5983.00
24.4794	5980.00
24.4964	5978.00
24.5134	5975.00
24.5304	5972.00
24.5474	5969.00
24.5644	5966.00
24.5814	5964.00
24.5984	5961.00
24.6154	5958.00
24.6324	5955.00
24.6494	5952.00
24.6664	5950.00
24.6834	5947.00
24.7004	5944.00
24.7174	5941.00
24.7344	5939.00
24.7514	5936.00
24.7684	5933.00
24.7854	5930.00
24.8024	5928.00
24.8194	5925.00
24.8364	5922.00
24.8534	5919.00
24.8704	5917.00
24.8874	5914.00
24.9044	5911.00
24.9214	5908.00
24.9384	5906.00
24.9554	5903.00
24.9724	5900.00
24.9894	5898.00
25.0064	5895.00
25.0234	5892.00
25.0404	5890.00
25.0574	5887.00
25.0744	5884.00
25.0914	5882.00
25.1084	5879.00
25.1254	5876.00
25.1424	5874.00
25.1594	5871.00
25.1764	5868.00
25.1934	5866.00
25.2104	5863.00
25.2274	5860.00
25.2444	5858.00
25.2614	5855.00
25.2784	5853.00
25.2954	5850.00
25.3124	5847.00
25.3294	5845.00
25.3464	5842.00
25.3634	5840.00
25.3804	5837.00
25.3974	5834.00
25.4144	5832.00
25.4314	5829.00
25.4484	5827.00
25.4654	5824.00
25.4824	5822.00
25.4994	5819.00
25.5164	5817.00
25.5334	5814.00
25.5504	5811.00
25.5674	5809.00
25.5844	5806.00
25.6014	5804.00
25.6184	5801.00
25.6354	5799.00
25.6524	5796.00
25.6694	5794.00
25.6864	5791.00
25.7034	5789.00
25.7204	5786.00
25.7374	5784.00
25.7544	5781.00
25.7714	5779.00
25.7884	5776.00
25.8054	5774.00
25.8224	5772.00
25.8394	5769.00
25.8564	5767.00
25.8734	5764.00
25.8904	5762.00
25.9074	5759.00
25.9244	5757.00
25.9414	5754.00
25.9584	5752.00
25.9754	5750.00
25.9924	5747.00
26.0094	5745.00
26.0264	5742.00
26.0434	5740.00
26.0604	5738.00
26.0774	5735.00
26.0944	5733.00
26.1114	5731.00
26.1284	5728.00
26.1454	5726.00
26.1624	5723.00
26.1794	5721.00
26.1964	5719.00
26.2134	5716.00
26.2304	5714.00
26.2474	5712.00
26.2644	5709.00
26.2814	5707.00
26.2984	5705.00
26.3154	5702.00
26.3324	5700.00
26.3494	5698.00
26.3664	5695.00
26.3834	5693.00
26.4004	5691.00
26.4174	5688.00
26.4344	5686.00
26.4514	5684.00
26.4684	5682.00
26.4854	5679.00
26.5024	5677.00
26.5194	5675.00
26.5364	5673.00
26.5534	5670.00
26.5704	5668.00
26.5874	5666.00
26.6044	5664.00
26.6214	5661.00
26.6384	5659.00
26.6554	5657.00
26.6724	5655.00
26.6894	5652.00
26.7064	5650.00
26.7234	5648.00
26.7404	5646.00
26.7574	5644.00
26.7744	5641.00
26.7914	5639.00
26.8084	5637.00
26.8254	5635.00
26.8424	5633.00
26.8594	5630.00
26.8764	5628.00
26.8934	5626.00
26.9104	5624.00
26.9274	5622.00
26.9444	5620.00
26.9614	5617.00
26.9784	5615.00
26.9954	5613.00
27.0124	5611.00
27.0294	5609.00
27.0464	5607.00
27.0634	5605.00
27.0804	5603.00
27.0974	5600.00
27.1144	5598.00
27.1314	5596.00
27.1484	5594.00
27.1654	5592.00
27.1824	5590.00
27.1994	5588.00
27.2164	5586.00
27.2334	5584.00
27.2504	5582.00
27.2674	5580.00
27.2844	5577.00
27.3014	5575.00
27.3184	5573.00
27.3354	5571.00
27.3524	5569.00
27.3694	5567.00
27.3864	5565.00
27.4034	5563.00
27.4204	5561.00
27.4374	5559.00
27.4544	5557.00
27.4714	5555.00
27.4884	5553.00
27.5054	5551.00
27.5224	5549.00
27.5394	5547.00
27.5564	5545.00
27.5734	5543.00
27.5904	5541.00
27.6074	5539.00
27.6244	5537.00
27.6414	5535.00
27.6584	5533.00
27.6754	5531.00
27.6924	5529.00
27.7094	5528.00
27.7264	5526.00
27.7434	5524.00
27.7604	5522.00
27.7774	5520.00
27.7944	5518.00
27.8114	5516.00
27.8284	5514.00
27.8454	5512.00
27.8624	5510.00
27.8794	5509.00
27.8964	5507.00
27.9134	5505.00
27.9304	5503.00
27.9474	5501.00
27.9644	5499.00
27.9814	5498.00
27.9984	5496.00
28.0154	5494.00
28.0324	5492.00
28.0494	5491.00
28.0664	5489.00
28.0834	5487.00
28.1004	5485.00
28.1174	5484.00
28.1344	5482.00
28.1514	5480.00
28.1684	5478.00
28.1854	5477.00
28.2024	5475.00
28.2194	5473.00
28.2364	5472.00
28.2534	5470.00
28.2704	5469.00
28.2874	5467.00
28.3044	5466.00
28.3214	5464.00
28.3384	5463.00
28.3554	5461.00
28.3724	5460.00
28.3894	5459.00
28.4064	5457.00
28.4234	5456.00
28.4404	5455.00
28.4574	5454.00
28.4744	5453.00
28.4914	5452.00
28.5084	5452.00
28.5254	5451.00
28.5424	5451.00
28.5594	5451.00
28.5764	5451.00
28.5934	5452.00
28.6104	5453.00
28.6274	5454.00
28.6444	5455.00
28.6614	5457.00
28.6784	5460.00
28.6954	5462.00
28.7124	5465.00
28.7294	5469.00
28.7464	5473.00
28.7634	5478.00
28.7804	5482.00
28.7974	5488.00
28.8144	5493.00
28.8314	5499.00
28.8484	5505.00
28.8654	5511.00
28.8824	5517.00
28.8994	5522.00
28.9164	5528.00
28.9334	5532.00
28.9504	5536.00
28.9674	5539.00
28.9844	5540.00
29.0014	5541.00
29.0184	5540.00
29.0354	5537.00
29.0524	5533.00
29.0694	5528.00
29.0864	5522.00
29.1034	5515.00
29.1204	5507.00
29.1374	5498.00
29.1544	5490.00
29.1714	5480.00
29.1884	5471.00
29.2054	5462.00
29.2224	5453.00
29.2394	5444.00
29.2564	5435.00
29.2734	5427.00
29.2904	5419.00
29.3074	5412.00
29.3244	5405.00
29.3414	5398.00
29.3584	5392.00
29.3754	5387.00
29.3924	5381.00
29.4094	5376.00
29.4264	5372.00
29.4434	5368.00
29.4604	5364.00
29.4774	5360.00
29.4944	5357.00
29.5114	5354.00
29.5284	5351.00
29.5454	5348.00
29.5624	5345.00
29.5794	5343.00
29.5964	5340.00
29.6134	5338.00
29.6304	5336.00
29.6474	5334.00
29.6644	5332.00
29.6814	5330.00
29.6984	5328.00
29.7154	5326.00
29.7324	5324.00
29.7494	5322.00
29.7664	5320.00
29.7834	5318.00
29.8004	5317.00
29.8174	5315.00
29.8344	5313.00
29.8514	5311.00
29.8684	5310.00
29.8854	5308.00
29.9024	5306.00
29.9194	5305.00
29.9364	5303.00
29.9534	5301.00
29.9704	5300.00
29.9874	5298.00
30.0044	5296.00
30.0214	5295.00
30.0384	5293.00
30.0554	5292.00
30.0724	5290.00
30.0894	5289.00
30.1064	5287.00
30.1234	5285.00
30.1404	5284.00
30.1574	5282.00
30.1744	5281.00
30.1914	5279.00
30.2084	5278.00
30.2254	5276.00
30.2424	5275.00
30.2594	5273.00
30.2764	5272.00
30.2934	5270.00
30.3104	5269.00
30.3274	5267.00
30.3444	5266.00
30.3614	5264.00
30.3784	5263.00
30.3954	5261.00
30.4124	5260.00
30.4294	5259.00
30.4464	5257.00
30.4634	5256.00
30.4804	5254.00
30.4974	5253.00
30.5144	5251.00
30.5314	5250.00
30.5484	5249.00
30.5654	5247.00
30.5824	5246.00
30.5994	5244.00
30.6164	5243.00
30.6334	5242.00
30.6504	5240.00
30.6674	5239.00
30.6844	5237.00
30.7014	5236.00
30.7184	5235.00
30.7354	5233.00
30.7524	5232.00
30.7694	5231.00
30.7864	5229.00
30.8034	5228.00
30.8204	5227.00
30.8374	5225.00
30.8544	5224.00
30.8714	5223.00
30.8884	5221.00
30.9054	5220.00
30.9224	5219.00
30.9394	5217.00
30.9564	5216.00
30.9734	5215.00
30.9904	5214.00
31.0074	5212.00
31.0244	5211.00
31.0414	5210.00
31.0584	5209.00
31.0754	5207.00
31.0924	5206.00
31.1094	5205.00
31.1264	5204.00
31.1434	5203.00
31.1604	5201.00
31.1774	5200.00
31.1944	5199.00
31.2114	5198.00
31.2284	5197.00
31.2454	5196.00
31.2624	5195.00
31.2794	5194.00
31.2964	5192.00
31.3134	5191.00
31.3304	5190.00
31.3474	5189.00
31.3644	5188.00
31.3814	5187.00
31.3984	5186.00
31.4154	5185.00
31.4324	5184.00
31.4494	5182.00
31.4664	5181.00
31.4834	5180.00
31.5004	5179.00
31.5174	5178.00
31.5344	5176.00
31.5514	5175.00
31.5684	5174.00
31.5854	5172.00
31.6024	5171.00
31.6194	5170.00
31.6364	5168.00
31.6534	5167.00
31.6704	5166.00
31.6874	5164.00
31.7044	5163.00
31.7214	5162.00
31.7384	5160.00
31.7554	5159.00
31.7724	5158.00
31.7894	5157.00
31.8064	5155.00
31.8234	5154.00
31.8404	5153.00
31.8574	5152.00
31.8744	5150.00
31.8914	5149.00
31.9084	5148.00
31.9254	5147.00
31.9424	5146.00
31.9594	5145.00
31.9764	5143.00
31.9934	5142.00
32.0104	5141.00
32.0274	5140.00
32.0444	5139.00
32.0614	5138.00
32.0784	5137.00
32.0954	5135.00
32.1124	5134.00
32.1294	5133.00
32.1464	5132.00
32.1634	5131.00
32.1804	5130.00
32.1974	5129.00
32.2144	5128.00
32.2314	5127.00
32.2484	5126.00
32.2654	5125.00
32.2824	5124.00
32.2994	5122.00
32.3164	5121.00
32.3334	5120.00
32.3504	5119.00
32.3674	5118.00
32.3844	5117.00
32.4014	5116.00
32.4184	5115.00
32.4354	5114.00
32.4524	5113.00
32.4694	5112.00
32.4864	5111.00
32.5034	5110.00
32.5204	5109.00
32.5374	5108.00
32.5544	5107.00
32.5714	5106.00
32.5884	5105.00
32.6054	5104.00
32.6224	5103.00
32.6394	5102.00
32.6564	5101.00
32.6734	5100.00
32.6904	5099.00
32.7074	5098.00
32.7244	5097.00
32.7414	5096.00
32.7584	5095.00
32.7754	5094.00
32.7924	5093.00
32.8094	5092.00
32.8264	5091.00
32.8434	5090.00
32.8604	5089.00
32.8774	5088.00
32.8944	5087.00
32.9114	5086.00
32.9284	5085.00
32.9454	5084.00
32.9624	5083.00
32.9794	5082.00
32.9964	5081.00
33.0134	5080.00
33.0304	5079.00
33.0474	5079.00
33.0644	5078.00
33.0814	5077.00
33.0984	5076.00
33.1154	5075.00
33.1324	5074.00
33.1494	5073.00
33.1664	5072.00
33.1834	5071.00
33.2004	5070.00
33.2174	5070.00
33.2344	5069.00
33.2514	5068.00
33.2684	5067.00
33.2854	5066.00
33.3024	5065.00
33.3194	5064.00
33.3364	5064.00
33.3534	5063.00
33.3704	5062.00
33.3874	5061.00
33.4044	5061.00
33.4214	5060.00
33.4384	5059.00
33.4554	5058.00
33.4724	5058.00
33.4894	5057.00
33.5064	5056.00
33.5234	5055.00
33.5404	5055.00
33.5574	5054.00
33.5744	5053.00
33.5914	5053.00
33.6084	5052.00
33.6254	5051.00
33.6424	5051.00
33.6594	5050.00
33.6764	5049.00
33.6934	5048.00
33.7104	5048.00
33.7274	5047.00
33.7444	5046.00
33.7614	5045.00
33.7784	5044.00
33.7954	5043.00
33.8124	5042.00
33.8294	5041.00
33.8464	5040.00
33.8634	5039.00
33.8804	5038.00
33.8974	5037.00
33.9144	5036.00
33.9314	5035.00
33.9484	5034.00
33.9654	5033.00
33.9824	5032.00
33.9994	5031.00
34.0164	5030.00
34.0334	5029.00
34.0504	5029.00
34.0674	5028.00
34.0844	5027.00
34.1014	5026.00
34.1184	5025.00
34.1354	5024.00
34.1524	5023.00
34.1694	5023.00
34.1864	5022.00
34.2034	5021.00
34.2204	5020.00
34.2374	5019.00
34.2544	5019.00
34.2714	5018.00
34.2884	5017.00
34.3054	5016.00
34.3224	5016.00
34.3394	5015.00
34.3564	5014.00
34.3734	5013.00
34.3904	5013.00
34.4074	5012.00
34.4244	5011.00
34.4414	5010.00
34.4584	5010.00
34.4754	5009.00
34.4924	5008.00
34.5094	5007.00
34.5264	5007.00
34.5434	5006.00
34.5604	5005.00
34.5774	5005.00
34.5944	5004.00
34.6114	5003.00
34.6284	5002.00
34.6454	5002.00
34.6624	5001.00
34.6794	5000.00
34.6964	5000.00
34.7134	4999.00
34.7304	4998.00
34.7474	4998.00
34.7644	4997.00
34.7814	4996.00
34.7984	4996.00
34.8154	4995.00
34.8324	4994.00
34.8494	4994.00
34.8664	4993.00
34.8834	4992.00
34.9004	4992.00
34.9174	4991.00
34.9344	4990.00
34.9514	4990.00
34.9684	4989.00
34.9854	4988.00
35.0024	4988.00
35.0194	4987.00
35.0364	4987.00
35.0534	4986.00
35.0704	4985.00
35.0874	4985.00
35.1044	4984.00
35.1214	4984.00
35.1384	4983.00
35.1554	4982.00
35.1724	4982.00
35.1894	4981.00
35.2064	4981.00
35.2234	4980.00
35.2404	4980.00
35.2574	4979.00
35.2744	4979.00
35.2914	4978.00
35.3084	4978.00
35.3254	4978.00
35.3424	4977.00
35.3594	4977.00
35.3764	4977.00
35.3934	4976.00
35.4104	4976.00
35.4274	4976.00
35.4444	4976.00
35.4614	4976.00
35.4784	4976.00
35.4954	4975.00
35.5124	4975.00
35.5294	4975.00
35.5464	4975.00
35.5634	4975.00
35.5804	4975.00
35.5974	4975.00
35.6144	4975.00
35.6314	4974.00
35.6484	4974.00
35.6654	4974.00
35.6824	4973.00
35.6994	4973.00
35.7164	4972.00
35.7334	4971.00
35.7504	4970.00
35.7674	4970.00
35.7844	4969.00
35.8014	4968.00
35.8184	4967.00
35.8354	4966.00
35.8524	4965.00
35.8694	4964.00
35.8864	4962.00
35.9034	4961.00
35.9204	4960.00
35.9374	4959.00
35.9544	4959.00
35.9714	4958.00
35.9884	4957.00
36.0054	4956.00
36.0224	4955.00
36.0394	4954.00
36.0564	4953.00
36.0734	4953.00
36.0904	4952.00
36.1074	4951.00
36.1244	4951.00
36.1414	4950.00
36.1584	4949.00
36.1754	4949.00
36.1924	4948.00
36.2094	4947.00
36.2264	4947.00
36.2434	4946.00
36.2604	4946.00
36.2774	4945.00
36.2944	4945.00
36.3114	4944.00
36.3284	4944.00
36.3454	4943.00
36.3624	4943.00
36.3794	4942.00
36.3964	4942.00
36.4134	4941.00
36.4304	4941.00
36.4474	4940.00
36.4644	4940.00
36.4814	4939.00
36.4984	4939.00
36.5154	4938.00
36.5324	4938.00
36.5494	4937.00
36.5664	4937.00
36.5834	4936.00
36.6004	4936.00
36.6174	4935.00
36.6344	4935.00
36.6514	4934.00
36.6684	4934.00
36.6854	4933.00
36.7024	4933.00
36.7194	4933.00
36.7364	4932.00
36.7534	4932.00
36.7704	4931.00
36.7874	4931.00
36.8044	4930.00
36.8214	4930.00
36.8384	4929.00
36.8554	4929.00
36.8724	4929.00
36.8894	4928.00
36.9064	4928.00
36.9234	4927.00
36.9404	4927.00
36.9574	4927.00
36.9744	4926.00
36.9914	4926.00
37.0084	4925.00
37.0254	4925.00
37.0424	4924.00
37.0594	4924.00
37.0764	4924.00
37.0934	4923.00
37.1104	4923.00
37.1274	4922.00
37.1444	4922.00
37.1614	4922.00
37.1784	4921.00
37.1954	4921.00
37.2124	4921.00
37.2294	4920.00
37.2464	4920.00
37.2634	4919.00
37.2804	4919.00
37.2974	4919.00
37.3144	4918.00
37.3314	4918.00
37.3484	4918.00
37.3654	4917.00
37.3824	4917.00
37.3994	4916.00
37.4164	4916.00
37.4334	4916.00
37.4504	4915.00
37.4674	4915.00
37.4844	4915.00
37.5014	4914.00
37.5184	4914.00
37.5354	4914.00
37.5524	4913.00
37.5694	4913.00
37.5864	4913.00
37.6034	4912.00
37.6204	4912.00
37.6374	4912.00
37.6544	4911.00
37.6714	4911.00
37.6884	4911.00
37.7054	4911.00
37.7224	4910.00
37.7394	4910.00
37.7564	4910.00
37.7734	4910.00
37.7904	4909.00
37.8074	4909.00
37.8244	4909.00
37.8414	4909.00
37.8584	4908.00
37.8754	4908.00
37.8924	4908.00
37.9094	4908.00
37.9264	4908.00
37.9434	4908.00
37.9604	4908.00
37.9774	4908.00
37.9944	4908.00
38.0114	4908.00
38.0284	4908.00
38.0454	4909.00
38.0624	4909.00
38.0794	4909.00
38.0964	4909.00
38.1134	4910.00
38.1304	4910.00
38.1474	4910.00
38.1644	4911.00
38.1814	4911.00
38.1984	4911.00
38.2154	4912.00
38.2324	4912.00
38.2494	4912.00
38.2664	4912.00
38.2834	4912.00
38.3004	4912.00
38.3174	4912.00
38.3344	4912.00
38.3514	4911.00
38.3684	4911.00
38.3854	4910.00
38.4024	4909.00
38.4194	4909.00
38.4364	4908.00
38.4534	4907.00
38.4704	4906.00
38.4874	4905.00
38.5044	4904.00
38.5214	4904.00
38.5384	4903.00
38.5554	4902.00
38.5724	4901.00
38.5894	4901.00
38.6064	4900.00
38.6234	4899.00
38.6404	4899.00
38.6574	4898.00
38.6744	4898.00
38.6914	4897.00
38.7084	4897.00
38.7254	4897.00
38.7424	4896.00
38.7594	4896.00
38.7764	4896.00
38.7934	4896.00
38.8104	4896.00
38.8274	4896.00
38.8444	4896.00
38.8614	4896.00
38.8784	4897.00
38.8954	4897.00
38.9124	4897.00
38.9294	4898.00
38.9464	4898.00
38.9634	4899.00
38.9804	4899.00
38.9974	4900.00
39.0144	4900.00
39.0314	4901.00
39.0484	4902.00
39.0654	4902.00
39.0824	4903.00
39.0994	4903.00
39.1164	4903.00
39.1334	4904.00
39.1504	4904.00
39.1674	4904.00
39.1844	4904.00
39.2014	4903.00
39.2184	4903.00
39.2354	4902.00
39.2524	4902.00
39.2694	4901.00
39.2864	4900.00
39.3034	4899.00
39.3204	4898.00
39.3374	4897.00
39.3544	4896.00
39.3714	4895.00
39.3884	4894.00
39.4054	4893.00
39.4224	4892.00
39.4394	4891.00
39.4564	4890.00
39.4734	4889.00
39.4904	4888.00
39.5074	4888.00
39.5244	4887.00
39.5414	4886.00
39.5584	4886.00
39.5754	4885.00
39.5924	4885.00
39.6094	4884.00
39.6264	4884.00
39.6434	4883.00
39.6604	4883.00
39.6774	4883.00
39.6944	4882.00
39.7114	4882.00
39.7284	4882.00
39.7454	4881.00
39.7624	4881.00
39.7794	4881.00
39.7964	4881.00
39.8134	4881.00
39.8304	4880.00
39.8474	4880.00
39.8644	4880.00
39.8814	4880.00
39.8984	4880.00
39.9154	4879.00
39.9324	4879.00
39.9494	4879.00
39.9664	4879.00
